timestamps,TP9,AF7,AF8,TP10,Right AUX
1681290673.635,4.395,-42.969,-139.160,1.953,0.000
1681290673.639,-23.438,-46.387,-136.719,-25.391,0.000
1681290673.642,-42.480,-43.945,-153.809,-45.410,0.000
1681290673.646,-35.645,-47.852,-166.504,-46.387,0.000
1681290673.650,-48.340,-53.223,-168.945,-62.988,0.000
1681290673.654,-53.223,-54.688,-166.504,-52.246,0.000
1681290673.658,-50.293,-59.082,-160.645,-27.832,0.000
1681290673.662,-55.664,-55.664,-153.809,-17.090,0.000
1681290673.666,-64.453,-52.246,-144.043,-26.367,0.000
1681290673.670,-75.195,-55.664,-137.207,-44.922,0.000
1681290673.674,-64.941,-60.059,-132.812,-33.691,0.000
1681290673.678,-49.316,-62.988,-115.723,-20.020,0.000
1681290673.682,-48.340,-59.082,-111.816,-26.367,0.000
1681290673.685,-62.012,-58.105,-120.605,-34.180,0.000
1681290673.689,-66.895,-64.941,-116.699,-42.480,0.000
1681290673.693,-58.594,-62.012,-111.816,-39.062,0.000
1681290673.697,-38.574,-56.641,-106.934,-12.207,0.000
1681290673.701,-27.832,-54.688,-101.074,4.883,0.000
1681290673.705,-48.828,-54.199,-98.145,-20.508,0.000
1681290673.709,-55.664,-56.641,-102.051,-39.551,0.000
1681290673.713,-43.457,-57.617,-118.652,-30.273,0.000
1681290673.717,-23.926,-50.781,-134.277,-22.461,0.000
1681290673.721,-16.602,-40.527,-138.672,-13.184,0.000
1681290673.724,-33.203,-43.457,-139.160,-16.602,0.000
1681290673.728,-50.781,-48.340,-141.602,-31.250,0.000
1681290673.732,-43.457,-46.875,-145.996,-28.809,0.000
1681290673.736,-23.926,-47.852,-136.719,-6.836,0.000
1681290673.740,-23.926,-50.293,-128.906,-0.488,0.000
1681290673.744,-30.273,-47.852,-131.836,-10.742,0.000
1681290673.748,-30.762,-45.898,-121.582,-23.926,0.000
1681290673.752,-21.484,-44.922,-104.004,-25.879,0.000
1681290673.756,-8.301,-42.969,-97.168,-9.277,0.000
1681290673.760,-1.465,-38.086,-94.238,-0.488,0.000
1681290673.764,-11.719,-34.180,-88.379,-8.301,0.000
1681290673.767,-24.902,-34.668,-82.031,-22.949,0.000
1681290673.771,-9.277,-34.180,-72.754,-18.066,0.000
1681290673.775,0.000,-34.180,-64.941,-2.930,0.000
1681290673.779,3.906,-36.621,-60.059,14.160,0.000
1681290673.783,9.766,-38.086,-45.410,11.230,0.000
1681290673.787,-5.859,-44.434,-33.691,-16.602,0.000
1681290673.791,-12.695,-48.340,-22.461,-24.414,0.000
1681290673.795,-0.977,-39.551,-10.254,-4.883,0.000
1681290673.799,-7.812,-39.062,-0.977,2.441,0.000
1681290673.803,-17.578,-41.992,7.324,-15.137,0.000
1681290673.807,-18.555,-42.480,10.742,-29.785,0.000
1681290673.810,-20.508,-40.527,12.695,-31.250,0.000
1681290673.814,-13.184,-41.992,32.227,-12.695,0.000
1681290673.818,0.488,-41.016,49.316,13.184,0.000
1681290673.822,4.395,-34.668,46.875,14.648,0.000
1681290673.826,-11.230,-36.133,44.922,-11.719,0.000
1681290673.830,-20.996,-45.410,46.875,-34.180,0.000
1681290673.834,-11.230,-51.758,54.688,-21.484,0.000
1681290673.838,-2.930,-46.875,60.059,-4.883,0.000
1681290673.842,-2.930,-42.480,62.988,-14.648,0.000
1681290673.846,-16.113,-49.805,62.988,-25.391,0.000
1681290673.849,-23.926,-43.945,66.406,-30.762,0.000
1681290673.853,-14.160,-37.598,71.777,-29.297,0.000
1681290673.857,-4.395,-41.504,71.777,-7.812,0.000
1681290673.861,-5.371,-40.527,72.754,2.930,0.000
1681290673.865,-11.719,-36.621,70.312,-10.742,0.000
1681290673.869,-18.066,-41.504,61.035,-24.902,0.000
1681290673.873,-19.531,-44.434,60.059,-23.438,0.000
1681290673.877,-11.719,-48.340,64.941,-9.277,0.000
1681290673.881,-14.648,-45.898,63.477,-5.859,0.000
1681290673.885,-24.902,-42.480,61.523,-23.438,0.000
1681290673.889,-28.320,-41.992,62.012,-38.086,0.000
1681290673.892,-24.902,-35.645,72.266,-27.832,0.000
1681290673.896,-14.648,-36.621,75.195,-2.930,0.000
1681290673.900,-4.395,-39.551,63.477,7.812,0.000
1681290673.904,-8.301,-37.109,52.246,-5.371,0.000
1681290673.908,-26.855,-40.039,46.875,-31.250,0.000
1681290673.912,-23.438,-41.992,50.781,-31.738,0.000
1681290673.916,-10.742,-43.945,48.828,-12.207,0.000
1681290673.920,-4.883,-42.480,46.387,1.465,0.000
1681290673.924,-16.602,-34.180,52.246,1.953,0.000
1681290673.928,-33.203,-34.668,50.293,-20.020,0.000
1681290673.932,-21.484,-35.645,45.898,-27.344,0.000
1681290673.935,-15.625,-37.109,42.969,-11.230,0.000
1681290673.939,-18.555,-40.527,40.039,-3.906,0.000
1681290673.943,-16.602,-44.922,27.832,-8.789,0.000
1681290673.947,-22.949,-40.039,19.043,-31.250,0.000
1681290673.951,-24.414,-27.832,25.879,-40.527,0.000
1681290673.955,-25.879,-28.320,32.715,-25.391,0.000
1681290673.959,-15.137,-32.227,39.551,-6.836,0.000
1681290673.963,-4.883,-34.180,37.109,-1.953,0.000
1681290673.967,-15.137,-35.156,23.438,-20.996,0.000
1681290673.971,-28.320,-31.250,1.465,-35.156,0.000
1681290673.974,-22.949,-30.762,-15.625,-17.578,0.000
1681290673.978,-7.324,-26.855,-27.344,0.000,0.000
1681290673.982,-19.531,-34.180,-39.551,2.930,0.000
1681290673.986,-37.109,-43.457,-47.363,-14.160,0.000
1681290673.990,-48.340,-38.086,-41.992,-35.156,0.000
1681290673.994,-36.133,-41.504,-31.250,-16.602,0.000
1681290673.998,-21.973,-45.410,-28.809,-4.395,0.000
1681290674.002,-23.926,-41.016,-28.809,-13.184,0.000
1681290674.006,-32.715,-48.340,-34.180,-35.645,0.000
1681290674.010,-41.016,-49.316,-33.203,-42.480,0.000
1681290674.014,-40.527,-44.922,-28.809,-22.461,0.000
1681290674.017,-25.391,-48.340,-22.949,-9.277,0.000
1681290674.021,-23.438,-47.852,-21.973,-11.230,0.000
1681290674.025,-33.203,-42.480,-17.090,-28.320,0.000
1681290674.029,-43.945,-43.945,-14.648,-54.199,0.000
1681290674.033,-40.039,-51.270,-18.555,-37.598,0.000
1681290674.037,-12.695,-50.293,-22.461,-4.883,0.000
1681290674.041,-20.020,-41.016,-24.902,-9.766,0.000
1681290674.045,-69.336,-37.598,-25.879,-38.086,0.000
1681290674.049,-69.824,-52.246,-29.785,-44.922,0.000
1681290674.053,-41.016,-56.641,-27.344,-25.879,0.000
1681290674.057,-36.621,-57.129,-24.414,-19.043,0.000
1681290674.060,-28.320,-52.246,-28.809,-13.184,0.000
1681290674.064,-41.016,-47.852,-38.086,-15.137,0.000
1681290674.068,-58.594,-47.363,-41.016,-46.387,0.000
1681290674.072,-52.246,-46.387,-42.480,-42.969,0.000
1681290674.076,-46.387,-49.316,-47.852,-13.184,0.000
1681290674.080,-33.203,-46.875,-57.617,-7.324,0.000
1681290674.084,-34.180,-48.828,-73.730,-13.672,0.000
1681290674.088,-52.734,-52.246,-86.914,-36.621,0.000
1681290674.092,-45.410,-51.758,-81.543,-46.875,0.000
1681290674.096,-29.297,-47.363,-75.684,-24.414,0.000
1681290674.099,-13.672,-44.434,-77.148,1.465,0.000
1681290674.103,-19.531,-39.551,-85.449,-6.836,0.000
1681290674.107,-33.203,-38.574,-116.699,-28.320,0.000
1681290674.111,-34.180,-45.410,-149.414,-28.320,0.000
1681290674.115,-25.391,-39.551,-159.180,-4.883,0.000
1681290674.119,-15.625,-37.109,-165.527,4.395,0.000
1681290674.123,-23.438,-47.852,-174.805,-14.160,0.000
1681290674.127,-38.086,-52.246,-182.617,-26.855,0.000
1681290674.131,-48.340,-50.293,-188.965,-27.832,0.000
1681290674.135,-34.180,-44.922,-184.570,-25.879,0.000
1681290674.139,-24.902,-42.969,-190.430,-10.254,0.000
1681290674.142,-23.438,-33.691,-201.660,-14.648,0.000
1681290674.146,-24.414,-28.320,-203.613,-32.715,0.000
1681290674.150,-38.574,-38.574,-193.359,-33.691,0.000
1681290674.154,-30.762,-41.504,-186.523,-19.043,0.000
1681290674.158,-14.160,-38.574,-189.941,-5.371,0.000
1681290674.162,-15.137,-48.340,-182.129,-11.230,0.000
1681290674.166,-30.762,-52.734,-176.270,-23.926,0.000
1681290674.170,-38.574,-44.922,-176.758,-41.992,0.000
1681290674.174,-35.645,-49.805,-167.969,-34.668,0.000
1681290674.178,-29.785,-54.688,-148.438,-19.531,0.000
1681290674.181,-22.949,-50.293,-135.742,-22.949,0.000
1681290674.185,-31.738,-50.293,-127.441,-22.949,0.000
1681290674.189,-37.109,-46.875,-116.211,-34.180,0.000
1681290674.193,-30.273,-39.551,-109.375,-33.203,0.000
1681290674.197,-14.648,-38.086,-97.656,-17.578,0.000
1681290674.201,-11.230,-36.133,-84.961,-9.766,0.000
1681290674.205,-17.578,-39.062,-76.660,-15.137,0.000
1681290674.209,-21.973,-41.016,-65.430,-27.344,0.000
1681290674.213,-22.949,-35.156,-49.805,-28.809,0.000
1681290674.217,-15.137,-30.762,-38.086,-11.719,0.000
1681290674.221,-10.742,-33.203,-25.879,0.977,0.000
1681290674.224,-13.184,-39.062,-21.484,-9.277,0.000
1681290674.228,-22.461,-38.086,-22.949,-33.691,0.000
1681290674.232,-22.461,-34.180,-13.672,-36.133,0.000
1681290674.236,-3.906,-31.250,-1.465,-14.648,0.000
1681290674.240,0.977,-36.133,0.000,-3.906,0.000
1681290674.244,-10.254,-39.062,-4.395,-12.695,0.000
1681290674.248,-28.320,-39.551,3.418,-23.926,0.000
1681290674.252,-29.785,-36.621,8.789,-19.043,0.000
1681290674.256,-26.855,-40.527,4.883,-9.766,0.000
1681290674.260,-18.555,-49.316,6.836,-7.324,0.000
1681290674.264,-4.395,-52.734,7.324,-7.324,0.000
1681290674.267,-24.414,-46.387,7.812,-16.602,0.000
1681290674.271,-28.809,-44.434,15.137,-27.344,0.000
1681290674.275,-12.207,-46.387,15.625,-26.367,0.000
1681290674.279,-11.719,-40.039,12.207,-13.672,0.000
1681290674.283,-20.508,-40.039,1.465,-15.625,0.000
1681290674.287,-30.762,-47.852,-5.371,-37.598,0.000
1681290674.291,-30.762,-53.711,-10.742,-39.062,0.000
1681290674.295,-28.809,-46.875,-11.719,-27.832,0.000
1681290674.299,-18.555,-37.109,-11.230,-23.438,0.000
1681290674.303,-11.230,-40.527,-55.176,-11.230,0.000
1681290674.306,-26.367,-46.875,-162.598,-21.973,0.000
1681290674.310,-39.062,-49.316,-224.609,-41.992,0.000
1681290674.314,-26.367,-49.316,-214.844,-25.391,0.000
1681290674.318,-16.602,-48.828,-209.473,-2.930,0.000
1681290674.322,-13.672,-41.016,-210.449,-1.465,0.000
1681290674.326,-16.113,-41.504,-205.566,-21.973,0.000
1681290674.330,-33.691,-54.688,-197.266,-37.109,0.000
1681290674.334,-25.391,-50.293,-165.039,-26.855,0.000
1681290674.338,-15.137,-44.434,-142.578,-5.859,0.000
1681290674.342,-15.625,-44.922,-151.855,2.930,0.000
1681290674.346,-15.625,-40.039,-142.090,-9.766,0.000
1681290674.349,-29.785,-41.504,-130.371,-37.598,0.000
1681290674.353,-31.738,-46.387,-129.883,-52.246,0.000
1681290674.357,-17.578,-41.504,-122.070,-25.879,0.000
1681290674.361,-11.230,-37.598,-113.281,-11.719,0.000
1681290674.365,-10.254,-38.086,-106.445,-22.949,0.000
1681290674.369,-20.996,-41.992,-101.562,-28.809,0.000
1681290674.373,-34.180,-44.922,-91.309,-20.508,0.000
1681290674.377,-23.438,-39.062,-76.660,-2.930,0.000
1681290674.381,-4.883,-35.156,-82.031,1.953,0.000
1681290674.385,-19.043,-37.598,-96.191,-9.277,0.000
1681290674.389,-43.457,-37.598,-104.004,-30.762,0.000
1681290674.392,-39.551,-35.156,-115.723,-28.809,0.000
1681290674.396,-24.902,-40.527,-126.953,-18.555,0.000
1681290674.400,-18.066,-46.875,-128.906,-10.742,0.000
1681290674.404,-23.926,-47.852,-129.395,-11.719,0.000
1681290674.408,-33.691,-48.340,-128.906,-25.879,0.000
1681290674.412,-36.133,-42.969,-128.418,-27.832,0.000
1681290674.416,-29.297,-39.551,-128.418,-14.160,0.000
1681290674.420,-14.160,-39.062,-124.512,-6.836,0.000
1681290674.424,-19.043,-33.691,-117.188,-19.043,0.000
1681290674.428,-25.391,-45.898,-107.422,-12.207,0.000
1681290674.431,-1.465,-50.293,-106.445,5.859,0.000
1681290674.435,-1.465,-24.902,-111.816,0.000,0.000
1681290674.439,-34.180,-21.484,-111.328,-15.625,0.000
1681290674.443,-42.969,-24.902,-109.375,-32.227,0.000
1681290674.447,-35.156,-24.902,-109.863,-46.387,0.000
1681290674.451,-33.203,-26.855,-103.516,-56.152,0.000
1681290674.455,-30.762,-23.438,-89.355,-57.129,0.000
1681290674.459,-13.672,-23.438,-91.309,-22.949,0.000
1681290674.463,-14.160,-22.949,-86.914,-24.902,0.000
1681290674.467,-28.809,-12.207,-75.195,-52.734,0.000
1681290674.471,-26.855,-7.324,-71.289,-44.434,0.000
1681290674.474,-20.996,-15.137,-62.500,-38.086,0.000
1681290674.478,-11.230,-13.672,-54.688,-28.320,0.000
1681290674.482,-10.742,-13.672,-50.781,-27.832,0.000
1681290674.486,-11.719,-20.508,-47.363,-35.645,0.000
1681290674.490,-16.113,-24.902,-42.480,-50.293,0.000
1681290674.494,-19.043,-22.461,-36.621,-41.016,0.000
1681290674.498,-7.324,-20.996,-34.668,-26.855,0.000
1681290674.502,-6.348,-26.855,-26.855,-22.461,0.000
1681290674.506,-20.508,-32.227,-22.949,-32.715,0.000
1681290674.510,-28.809,-26.855,-19.043,-55.176,0.000
1681290674.514,-13.184,-20.996,-7.812,-40.527,0.000
1681290674.517,3.906,-31.250,-6.836,-16.113,0.000
1681290674.521,3.418,-34.668,-9.277,-22.949,0.000
1681290674.525,-12.207,-24.902,-6.348,-34.668,0.000
1681290674.529,-25.879,-24.902,-2.930,-32.715,0.000
1681290674.533,-17.578,-34.668,3.906,-20.020,0.000
1681290674.537,6.836,-27.832,12.695,-5.371,0.000
1681290674.541,8.789,-27.832,12.695,-4.395,0.000
1681290674.545,-20.020,-37.109,0.488,-15.625,0.000
1681290674.549,-24.414,-36.621,0.977,-30.762,0.000
1681290674.553,-10.742,-32.715,11.719,-28.320,0.000
1681290674.556,-0.977,-29.297,7.324,-19.043,0.000
1681290674.560,0.977,-29.785,-2.930,-3.418,0.000
1681290674.564,-6.836,-33.691,-7.812,4.395,0.000
1681290674.568,-20.020,-35.156,-11.719,-23.926,0.000
1681290674.572,-15.625,-32.227,-9.766,-40.039,0.000
1681290674.576,-12.207,-31.250,-6.348,-32.715,0.000
1681290674.580,1.465,-30.762,-8.301,-26.367,0.000
1681290674.584,0.488,-37.598,-1.953,-22.461,0.000
1681290674.588,-30.273,-41.992,6.836,-40.527,0.000
1681290674.592,-24.414,-38.086,3.906,-50.781,0.000
1681290674.596,-15.137,-38.574,6.348,-29.785,0.000
1681290674.599,-7.324,-35.156,7.812,-11.230,0.000
1681290674.603,-1.465,-32.227,9.766,-15.137,0.000
1681290674.607,-24.414,-32.715,12.695,-29.297,0.000
1681290674.611,-27.832,-31.738,13.184,-23.926,0.000
1681290674.615,-16.113,-34.180,21.484,-4.883,0.000
1681290674.619,-5.371,-31.738,26.367,6.836,0.000
1681290674.623,1.953,-28.809,23.926,5.859,0.000
1681290674.627,-16.602,-28.809,22.949,-15.625,0.000
1681290674.631,-29.297,-34.668,29.297,-26.367,0.000
1681290674.635,-19.043,-44.434,33.203,-17.090,0.000
1681290674.639,-7.812,-44.922,41.016,-1.465,0.000
1681290674.642,-4.395,-32.227,71.777,13.672,0.000
1681290674.646,-8.789,-24.902,97.168,-1.953,0.000
1681290674.650,-20.996,-28.320,94.238,-22.949,0.000
1681290674.654,-17.090,-28.809,90.332,-16.113,0.000
1681290674.658,-1.953,-26.855,95.215,0.488,0.000
1681290674.662,-2.441,-35.156,97.168,14.160,0.000
1681290674.666,-16.113,-39.551,90.820,-5.859,0.000
1681290674.670,-28.809,-30.762,89.355,-20.508,0.000
1681290674.674,-25.879,-34.668,86.426,-3.906,0.000
1681290674.678,-13.184,-45.410,83.984,11.719,0.000
1681290674.681,-12.207,-40.527,82.520,18.555,0.000
1681290674.685,-26.855,-34.180,77.148,6.836,0.000
1681290674.689,-24.414,-39.551,80.078,-8.789,0.000
1681290674.693,-20.020,-41.504,75.195,-10.742,0.000
1681290674.697,-11.719,-43.457,69.824,-2.441,0.000
1681290674.701,-12.695,-40.527,72.266,8.301,0.000
1681290674.705,-21.973,-36.133,72.754,0.977,0.000
1681290674.709,-17.578,-42.969,73.242,-17.090,0.000
1681290674.713,-11.719,-50.293,83.008,-25.879,0.000
1681290674.717,-7.324,-41.016,100.098,-0.488,0.000
1681290674.721,-9.277,-37.598,104.492,12.695,0.000
1681290674.724,-14.648,-47.852,95.703,-2.930,0.000
1681290674.728,-18.066,-46.387,91.797,-15.625,0.000
1681290674.732,-12.695,-41.016,97.656,-14.648,0.000
1681290674.736,-11.719,-39.062,103.516,4.883,0.000
1681290674.740,-11.719,-38.086,99.121,12.207,0.000
1681290674.744,-3.418,-42.480,96.191,16.602,0.000
1681290674.748,-7.324,-44.434,95.703,-1.465,0.000
1681290674.752,-15.625,-40.527,90.820,-14.160,0.000
1681290674.756,-12.695,-44.434,85.938,10.254,0.000
1681290674.760,7.812,-41.504,90.820,17.090,0.000
1681290674.764,6.348,-41.992,101.074,17.578,0.000
1681290674.767,-4.883,-46.387,101.074,3.418,0.000
1681290674.771,-9.277,-39.062,93.262,-11.230,0.000
1681290674.775,-8.301,-39.062,89.844,-3.906,0.000
1681290674.779,8.301,-32.227,87.891,19.531,0.000
1681290674.783,-2.930,-33.691,77.637,15.137,0.000
1681290674.787,-19.043,-41.016,65.918,-12.695,0.000
1681290674.791,-22.949,-39.062,66.895,-14.160,0.000
1681290674.795,-22.949,-41.504,74.707,-11.719,0.000
1681290674.799,-16.113,-42.969,76.660,-8.789,0.000
1681290674.803,-10.742,-43.945,77.148,2.930,0.000
1681290674.806,-9.766,-39.551,76.660,4.883,0.000
1681290674.810,-25.391,-37.598,77.637,-20.996,0.000
1681290674.814,-33.691,-36.621,81.543,-27.344,0.000
1681290674.818,-16.602,-33.203,81.055,-0.488,0.000
1681290674.822,4.883,-37.109,84.961,11.230,0.000
1681290674.826,-5.371,-40.039,88.379,-5.859,0.000
1681290674.830,-23.926,-41.016,86.426,-29.297,0.000
1681290674.834,-28.320,-41.016,77.148,-26.367,0.000
1681290674.838,-6.836,-36.621,80.566,0.000,0.000
1681290674.842,6.348,-26.367,94.238,8.789,0.000
1681290674.846,-1.465,-24.414,86.426,-6.836,0.000
1681290674.849,-9.277,-24.902,77.148,-18.066,0.000
1681290674.853,-12.695,-24.414,86.426,-16.113,0.000
1681290674.857,-2.441,-28.320,84.961,-7.812,0.000
1681290674.861,18.066,-18.555,82.031,8.789,0.000
1681290674.865,1.953,-14.648,75.684,15.137,0.000
1681290674.869,-18.066,-27.344,72.754,-12.695,0.000
1681290674.873,-11.230,-35.156,76.660,-21.973,0.000
1681290674.877,-8.301,-34.180,72.754,-1.465,0.000
1681290674.881,-6.836,-29.297,71.777,14.160,0.000
1681290674.885,-8.789,-32.715,64.941,-8.301,0.000
1681290674.888,-19.531,-37.109,56.152,-34.180,0.000
1681290674.892,-20.996,-37.598,58.105,-29.785,0.000
1681290674.896,-15.625,-41.016,67.383,-33.203,0.000
1681290674.900,-14.160,-38.574,73.242,-31.738,0.000
1681290674.904,-12.695,-37.598,54.688,-19.531,0.000
1681290674.908,-24.902,-43.945,38.086,-28.809,0.000
1681290674.912,-25.391,-39.062,40.039,-33.203,0.000
1681290674.916,-13.672,-31.738,39.551,-10.742,0.000
1681290674.920,-2.441,-34.668,33.203,3.906,0.000
1681290674.924,-3.418,-38.086,23.926,-12.695,0.000
1681290674.928,-26.367,-38.086,19.531,-38.086,0.000
1681290674.931,-34.180,-33.691,23.438,-37.598,0.000
1681290674.935,-20.508,-30.762,24.902,-19.531,0.000
1681290674.939,-2.930,-27.832,23.926,-7.812,0.000
1681290674.943,-5.859,-31.250,27.344,-8.301,0.000
1681290674.947,-27.344,-40.527,29.297,-17.578,0.000
1681290674.951,-28.320,-36.621,28.320,-27.832,0.000
1681290674.955,-33.203,-35.156,29.785,-24.902,0.000
1681290674.959,-24.414,-42.969,32.715,-3.418,0.000
1681290674.963,-9.277,-39.551,30.762,0.000,0.000
1681290674.967,-20.996,-37.109,37.598,-16.113,0.000
1681290674.971,-20.508,-38.574,54.199,-21.484,0.000
1681290674.974,-9.277,-33.203,74.219,-9.277,0.000
1681290674.978,2.441,-27.344,77.637,3.418,0.000
1681290674.982,6.836,-25.879,61.035,1.953,0.000
1681290674.986,-3.906,-29.785,50.293,0.488,0.000
1681290674.990,-14.160,-23.438,42.480,-4.883,0.000
1681290674.994,-19.043,-19.043,32.715,-14.160,0.000
1681290674.998,-13.184,-22.461,24.902,-3.418,0.000
1681290675.002,7.324,-19.043,8.301,14.648,0.000
1681290675.006,-9.766,-23.926,-16.113,3.418,0.000
1681290675.010,-30.762,-25.391,-38.086,-15.625,0.000
1681290675.013,-18.555,-19.531,-52.734,-11.230,0.000
1681290675.017,-6.348,-18.066,-63.965,10.254,0.000
1681290675.021,-1.953,-20.020,-76.660,7.324,0.000
1681290675.025,-8.789,-29.785,-109.375,-12.207,0.000
1681290675.029,-17.578,-29.297,-138.672,-11.719,0.000
1681290675.033,-20.020,-23.926,-126.465,-0.977,0.000
1681290675.037,-13.672,-25.391,-109.863,12.207,0.000
1681290675.041,2.930,-23.438,-115.234,24.902,0.000
1681290675.045,3.418,-25.391,-119.141,19.531,0.000
1681290675.049,-6.348,-24.414,-124.512,12.207,0.000
1681290675.053,0.000,-18.066,-129.883,10.742,0.000
1681290675.056,6.836,-17.578,-129.883,11.719,0.000
1681290675.060,8.789,-19.043,-132.812,20.996,0.000
1681290675.064,5.371,-21.973,-141.113,19.043,0.000
1681290675.068,-1.465,-20.996,-147.949,4.883,0.000
1681290675.072,-8.301,-22.949,-146.973,-3.906,0.000
1681290675.076,4.883,-18.555,-154.297,10.742,0.000
1681290675.080,18.555,-13.672,-169.922,20.020,0.000
1681290675.084,13.672,-20.020,-183.105,10.742,0.000
1681290675.088,7.324,-18.066,-193.359,-4.883,0.000
1681290675.092,8.301,-18.066,-189.941,-18.066,0.000
1681290675.096,16.113,-12.207,-190.918,-7.812,0.000
1681290675.099,25.391,-7.812,-196.289,6.836,0.000
1681290675.103,24.414,-12.695,-196.289,4.883,0.000
1681290675.107,16.113,-15.625,-199.707,-6.348,0.000
1681290675.111,5.371,-8.301,-217.285,-14.160,0.000
1681290675.115,2.441,-15.625,-223.633,-11.719,0.000
1681290675.119,4.395,-19.043,-214.355,5.371,0.000
1681290675.123,4.883,-13.184,-199.707,16.602,0.000
1681290675.127,1.953,-16.113,-183.105,-0.977,0.000
1681290675.131,-2.441,-15.625,-173.340,-16.113,0.000
1681290675.135,-4.395,-15.137,-164.551,-0.488,0.000
1681290675.138,0.488,-9.766,-162.598,6.348,0.000
1681290675.142,13.184,-7.812,-158.203,3.906,0.000
1681290675.146,5.371,-8.301,-157.227,2.930,0.000
1681290675.150,-5.371,-14.160,-153.320,-10.254,0.000
1681290675.154,6.348,-14.160,-147.949,0.488,0.000
1681290675.158,13.672,-5.371,-136.230,15.137,0.000
1681290675.162,14.648,-11.230,-136.230,21.484,0.000
1681290675.166,5.859,-11.230,-151.855,13.672,0.000
1681290675.170,-1.953,-5.859,-158.691,-9.277,0.000
1681290675.174,11.719,-8.789,-162.598,-6.348,0.000
1681290675.178,5.859,-6.348,-164.551,8.301,0.000
1681290675.181,9.766,-2.441,-170.410,15.625,0.000
1681290675.185,10.742,-12.695,-178.223,5.859,0.000
1681290675.189,-4.883,-13.672,-181.641,-4.883,0.000
1681290675.193,-10.254,-12.207,-175.781,-1.953,0.000
1681290675.197,0.977,-9.766,-161.133,9.766,0.000
1681290675.201,23.438,-4.395,-152.832,30.273,0.000
1681290675.205,20.508,-3.418,-145.996,7.324,0.000
1681290675.209,-1.953,-4.395,-140.625,-17.090,0.000
1681290675.213,-0.977,-2.441,-126.953,-3.906,0.000
1681290675.217,22.949,3.906,-113.281,11.230,0.000
1681290675.221,23.438,4.883,-115.723,11.719,0.000
1681290675.224,9.766,6.836,-115.234,8.789,0.000
1681290675.228,6.836,1.465,-111.328,0.488,0.000
1681290675.232,-3.418,-6.836,-113.281,-6.836,0.000
1681290675.236,6.836,-4.395,-108.398,5.859,0.000
1681290675.240,12.207,-5.859,-101.562,13.672,0.000
1681290675.244,8.789,-5.859,-102.539,7.812,0.000
1681290675.248,2.930,-3.418,-101.074,-6.348,0.000
1681290675.252,-8.301,0.000,-91.309,-18.555,0.000
1681290675.256,0.977,2.930,-86.426,3.906,0.000
1681290675.260,12.207,9.277,-75.195,32.715,0.000
1681290675.263,13.184,4.883,-69.336,20.508,0.000
1681290675.267,12.695,1.465,-66.895,8.301,0.000
1681290675.271,2.441,1.465,-60.059,2.441,0.000
1681290675.275,5.859,-3.418,-50.781,5.371,0.000
1681290675.279,19.043,-6.836,-45.410,17.578,0.000
1681290675.283,16.113,-1.953,-44.434,21.973,0.000
1681290675.287,12.695,-0.488,-43.945,0.488,0.000
1681290675.291,11.719,-8.789,-43.457,-21.973,0.000
1681290675.295,9.277,-2.441,-44.434,7.812,0.000
1681290675.299,19.531,1.953,-41.016,41.992,0.000
1681290675.303,23.926,-6.836,-41.016,41.504,0.000
1681290675.306,20.996,-4.883,-39.551,26.367,0.000
1681290675.310,20.020,-0.488,-34.180,20.020,0.000
1681290675.314,9.766,-8.301,-29.785,19.043,0.000
1681290675.318,10.742,-11.230,-26.367,25.879,0.000
1681290675.322,13.672,-10.254,-26.367,22.461,0.000
1681290675.326,1.465,-13.672,-33.203,0.977,0.000
1681290675.330,1.465,-16.602,-30.273,-6.348,0.000
1681290675.334,2.441,-4.883,-15.625,0.977,0.000
1681290675.338,12.207,0.488,-10.254,27.832,0.000
1681290675.342,24.902,-12.207,-13.672,33.203,0.000
1681290675.346,16.113,-20.508,-17.090,15.625,0.000
1681290675.349,-8.789,-23.438,-11.230,-0.977,0.000
1681290675.353,-17.090,-23.926,-8.301,-5.371,0.000
1681290675.357,-0.488,-19.043,-3.906,13.184,0.000
1681290675.361,12.695,-14.160,9.277,20.508,0.000
1681290675.365,-3.418,-15.625,16.602,14.648,0.000
1681290675.369,2.441,-10.254,20.996,8.301,0.000
1681290675.373,7.324,-15.625,28.320,5.371,0.000
1681290675.377,4.395,-21.484,33.691,12.695,0.000
1681290675.381,20.020,-14.160,37.598,27.832,0.000
1681290675.385,14.160,-13.672,41.504,12.207,0.000
1681290675.388,-4.883,-13.184,42.480,-7.812,0.000
1681290675.392,-13.184,-18.555,44.434,-14.160,0.000
1681290675.396,-0.977,-20.020,51.270,-3.418,0.000
1681290675.400,6.348,-12.695,56.152,17.578,0.000
1681290675.404,-2.930,-14.648,54.199,14.648,0.000
1681290675.408,-8.789,-12.207,47.852,-0.977,0.000
1681290675.412,-4.883,-12.207,47.363,-5.371,0.000
1681290675.416,6.348,-12.207,56.152,13.672,0.000
1681290675.420,9.277,-6.348,72.754,19.043,0.000
1681290675.424,2.441,-15.625,74.707,17.578,0.000
1681290675.428,-6.836,-20.996,72.754,9.766,0.000
1681290675.431,-14.648,-18.555,81.543,-0.488,0.000
1681290675.435,-10.254,-16.602,87.891,18.555,0.000
1681290675.439,-2.441,-22.949,90.820,28.320,0.000
1681290675.443,7.324,-24.414,90.820,18.555,0.000
1681290675.447,1.953,-22.949,89.844,6.348,0.000
1681290675.451,-6.348,-25.391,96.680,-0.977,0.000
1681290675.455,3.418,-21.973,112.305,-3.418,0.000
1681290675.459,7.324,-22.949,120.605,9.766,0.000
1681290675.463,14.648,-27.344,111.328,19.531,0.000
1681290675.467,16.602,-22.949,106.445,9.766,0.000
1681290675.470,0.000,-21.973,110.840,2.441,0.000
1681290675.474,4.395,-25.391,109.375,9.277,0.000
1681290675.478,13.184,-22.461,109.863,21.973,0.000
1681290675.482,16.602,-19.531,107.910,35.156,0.000
1681290675.486,12.695,-20.996,103.027,22.949,0.000
1681290675.490,-1.953,-21.973,98.145,-6.836,0.000
1681290675.494,0.488,-21.484,98.633,-7.812,0.000
1681290675.498,15.625,-18.066,115.723,13.672,0.000
1681290675.502,19.043,-13.672,118.164,18.555,0.000
1681290675.506,5.371,-24.414,105.957,1.465,0.000
1681290675.510,-3.906,-29.785,103.027,-9.766,0.000
1681290675.513,-5.371,-24.414,104.492,2.930,0.000
1681290675.517,7.324,-23.926,104.980,18.555,0.000
1681290675.521,13.672,-30.762,104.492,25.879,0.000
1681290675.525,-9.277,-34.668,104.004,14.160,0.000
1681290675.529,-16.602,-33.691,98.145,-8.789,0.000
1681290675.533,0.488,-31.250,95.215,-7.324,0.000
1681290675.537,4.883,-28.809,100.586,18.555,0.000
1681290675.541,-11.230,-32.227,105.469,23.438,0.000
1681290675.545,-12.695,-27.832,99.121,9.766,0.000
1681290675.549,-3.906,-23.926,89.355,6.836,0.000
1681290675.553,-15.625,-28.320,84.473,-4.395,0.000
1681290675.556,-19.043,-34.668,83.008,-2.930,0.000
1681290675.560,-12.207,-30.762,84.473,11.230,0.000
1681290675.564,-13.672,-25.391,81.055,-2.930,0.000
1681290675.568,-18.555,-29.785,77.637,-13.184,0.000
1681290675.572,-26.367,-31.738,76.660,-18.066,0.000
1681290675.576,-22.461,-32.715,75.684,-8.301,0.000
1681290675.580,-3.418,-27.344,75.684,7.324,0.000
1681290675.584,-0.488,-26.855,67.383,3.906,0.000
1681290675.588,-11.230,-32.227,55.664,1.465,0.000
1681290675.592,-12.695,-26.855,49.316,-7.324,0.000
1681290675.595,-3.418,-25.879,42.969,-4.395,0.000
1681290675.599,6.348,-27.832,36.133,15.137,0.000
1681290675.603,6.348,-29.297,34.668,22.461,0.000
1681290675.607,-8.301,-26.367,27.832,-1.465,0.000
1681290675.611,-17.578,-22.949,15.625,-20.996,0.000
1681290675.615,-14.160,-27.344,6.836,-11.230,0.000
1681290675.619,-3.906,-26.855,5.371,0.977,0.000
1681290675.623,-1.953,-26.855,0.977,2.930,0.000
1681290675.627,-21.973,-25.391,-10.254,-11.230,0.000
1681290675.631,-30.762,-26.855,-16.602,-14.648,0.000
1681290675.635,-22.949,-26.855,-23.926,-9.766,0.000
1681290675.638,-11.719,-26.855,-25.391,-1.465,0.000
1681290675.642,-2.930,-23.926,-31.250,9.766,0.000
1681290675.646,-7.812,-24.414,-38.574,-4.883,0.000
1681290675.650,-19.531,-39.062,-37.109,-22.461,0.000
1681290675.654,-22.949,-44.922,-34.668,-21.484,0.000
1681290675.658,-25.879,-43.457,-37.598,-8.789,0.000
1681290675.662,-22.949,-39.551,-39.062,0.977,0.000
1681290675.666,-13.184,-30.273,-31.738,-6.836,0.000
1681290675.670,-23.438,-27.832,-28.320,-23.926,0.000
1681290675.674,-33.203,-34.180,-28.809,-26.367,0.000
1681290675.678,-23.438,-33.691,-26.855,-7.324,0.000
1681290675.681,-16.113,-35.156,-28.320,5.859,0.000
1681290675.685,-15.137,-35.645,-30.273,0.488,0.000
1681290675.689,-14.648,-26.855,-37.598,-8.301,0.000
1681290675.693,-10.742,-16.602,-56.641,-11.719,0.000
1681290675.697,-7.324,-20.508,-69.336,-10.254,0.000
1681290675.701,-2.930,-31.738,-75.195,-6.836,0.000
1681290675.705,-8.301,-20.020,-73.730,-3.418,0.000
1681290675.709,-32.715,-17.090,-78.613,-22.461,0.000
1681290675.713,-40.527,-21.973,-78.125,-34.668,0.000
1681290675.717,-22.461,-2.441,-67.383,-14.160,0.000
1681290675.720,-18.555,-12.695,-66.406,-6.836,0.000
1681290675.724,-36.621,-13.672,-70.312,-25.879,0.000
1681290675.728,-62.012,-2.441,-73.242,-62.500,0.000
1681290675.732,-80.566,-3.418,-76.660,-86.914,0.000
1681290675.736,-79.102,10.254,-72.266,-82.031,0.000
1681290675.740,-90.332,20.508,-65.430,-92.285,0.000
1681290675.744,-114.746,22.461,-77.637,-120.117,0.000
1681290675.748,-135.742,26.855,-91.309,-143.066,0.000
1681290675.752,-163.574,27.832,-97.656,-175.293,0.000
1681290675.756,-164.551,32.227,-108.887,-183.594,0.000
1681290675.760,-159.668,36.133,-112.305,-172.852,0.000
1681290675.763,-167.480,32.715,-113.281,-174.316,0.000
1681290675.767,-173.340,40.527,-115.234,-182.129,0.000
1681290675.771,-173.828,40.527,-111.816,-188.965,0.000
1681290675.775,-160.156,25.391,-107.910,-166.504,0.000
1681290675.779,-139.160,17.090,-101.074,-133.301,0.000
1681290675.783,-115.234,14.160,-90.332,-108.887,0.000
1681290675.787,-103.027,7.324,-87.891,-93.750,0.000
1681290675.791,-110.840,1.953,-85.938,-104.980,0.000
1681290675.795,-95.703,-3.906,-79.102,-91.797,0.000
1681290675.799,-69.824,-11.719,-74.219,-55.176,0.000
1681290675.803,-56.152,-17.090,-73.242,-39.062,0.000
1681290675.806,-50.293,-22.461,-75.195,-33.203,0.000
1681290675.810,-41.016,-20.508,-76.660,-33.691,0.000
1681290675.814,-29.785,-21.484,-81.055,-29.297,0.000
1681290675.818,-10.254,-18.555,-77.637,-1.953,0.000
1681290675.822,8.789,-16.113,-76.660,20.020,0.000
1681290675.826,1.953,-31.738,-80.566,11.719,0.000
1681290675.830,-1.953,-32.715,-81.055,-3.906,0.000
1681290675.834,8.301,-32.715,-75.684,2.441,0.000
1681290675.838,25.879,-39.062,-73.242,22.949,0.000
1681290675.842,38.574,-35.645,-78.125,36.621,0.000
1681290675.845,35.645,-37.598,-79.590,33.203,0.000
1681290675.849,25.391,-41.504,-77.637,16.113,0.000
1681290675.853,26.367,-40.527,-79.102,11.719,0.000
1681290675.857,31.250,-45.410,-81.543,29.297,0.000
1681290675.861,34.668,-50.781,-74.707,46.387,0.000
1681290675.865,44.922,-48.340,-74.219,45.898,0.000
1681290675.869,32.227,-50.781,-77.637,39.551,0.000
1681290675.873,11.719,-61.035,-75.195,28.320,0.000
1681290675.877,16.113,-64.453,-72.266,34.180,0.000
1681290675.881,29.297,-62.500,-75.195,42.969,0.000
1681290675.885,21.973,-61.035,-83.496,41.016,0.000
1681290675.888,3.906,-58.594,-90.820,23.926,0.000
1681290675.892,1.465,-58.105,-91.309,10.742,0.000
1681290675.896,14.160,-59.570,-84.473,36.133,0.000
1681290675.900,23.926,-62.500,-82.520,47.363,0.000
1681290675.904,21.973,-59.082,-83.984,39.551,0.000
1681290675.908,15.137,-49.805,-87.891,31.250,0.000
1681290675.912,15.625,-42.480,-99.121,17.090,0.000
1681290675.916,26.367,-48.340,-103.027,28.809,0.000
1681290675.920,32.715,-48.340,-98.145,49.316,0.000
1681290675.924,37.598,-41.504,-99.121,48.828,0.000
1681290675.928,23.926,-45.898,-113.281,29.785,0.000
1681290675.931,8.789,-46.387,-116.699,20.508,0.000
1681290675.935,21.973,-41.016,-108.887,33.691,0.000
1681290675.939,31.738,-39.551,-115.723,44.922,0.000
1681290675.943,27.832,-41.016,-119.141,37.598,0.000
1681290675.947,21.484,-37.598,-109.375,27.832,0.000
1681290675.951,20.020,-28.320,-107.422,19.531,0.000
1681290675.955,17.090,-26.367,-106.934,12.207,0.000
1681290675.959,21.973,-35.645,-109.375,30.762,0.000
1681290675.963,27.832,-36.133,-115.234,45.898,0.000
1681290675.967,17.090,-38.574,-113.770,21.484,0.000
1681290675.970,6.836,-37.109,-108.887,1.953,0.000
1681290675.974,5.371,-30.762,-105.957,3.906,0.000
1681290675.978,15.625,-33.691,-101.562,24.902,0.000
1681290675.982,20.020,-39.551,-99.121,36.621,0.000
1681290675.986,8.789,-38.086,-106.445,19.531,0.000
1681290675.990,2.930,-33.203,-109.375,2.441,0.000
1681290675.994,3.418,-35.156,-104.492,4.883,0.000
1681290675.998,11.230,-33.691,-101.562,13.672,0.000
1681290676.002,21.973,-32.715,-103.027,24.414,0.000
1681290676.006,16.113,-34.180,-102.051,20.020,0.000
1681290676.010,3.906,-33.203,-105.957,-1.953,0.000
1681290676.013,1.953,-35.645,-102.051,-1.953,0.000
1681290676.017,8.301,-36.621,-93.262,12.695,0.000
1681290676.021,14.160,-33.203,-90.332,18.555,0.000
1681290676.025,12.695,-32.715,-86.426,8.301,0.000
1681290676.029,-6.836,-35.156,-82.031,-8.301,0.000
1681290676.033,-7.812,-33.203,-68.359,-7.812,0.000
1681290676.037,13.184,-27.832,-55.664,9.766,0.000
1681290676.041,8.301,-29.785,-46.875,20.508,0.000
1681290676.045,-3.906,-37.109,-41.016,9.766,0.000
1681290676.049,-12.695,-41.016,-42.969,-11.230,0.000
1681290676.052,-19.043,-41.016,-37.598,-17.578,0.000
1681290676.056,-9.766,-30.273,-23.438,-2.930,0.000
1681290676.060,8.301,-28.320,-10.254,11.230,0.000
1681290676.064,5.371,-34.180,-9.277,2.930,0.000
1681290676.068,-6.836,-38.086,-15.625,-23.438,0.000
1681290676.072,-12.695,-35.645,-3.418,-38.086,0.000
1681290676.076,-9.766,-37.109,2.441,-26.367,0.000
1681290676.080,-1.465,-41.504,7.324,-6.836,0.000
1681290676.084,-3.906,-41.992,11.230,5.371,0.000
1681290676.088,-16.113,-39.551,11.719,-6.348,0.000
1681290676.092,-17.578,-34.180,10.742,-22.949,0.000
1681290676.095,-9.766,-31.250,5.859,-20.508,0.000
1681290676.099,-0.488,-28.809,11.719,-0.488,0.000
1681290676.103,2.441,-33.691,11.719,10.742,0.000
1681290676.107,-6.348,-32.715,14.160,-2.441,0.000
1681290676.111,-14.648,-26.855,20.020,-14.160,0.000
1681290676.115,-12.207,-31.250,21.484,-11.230,0.000
1681290676.119,-1.953,-29.297,20.508,-0.977,0.000
1681290676.123,0.000,-32.715,15.625,7.812,0.000
1681290676.127,-12.207,-42.480,11.230,-2.441,0.000
1681290676.131,-24.902,-38.086,8.789,-21.973,0.000
1681290676.135,-25.879,-33.203,7.812,-25.879,0.000
1681290676.138,-18.555,-43.457,8.789,-4.883,0.000
1681290676.142,-12.695,-42.480,14.648,8.301,0.000
1681290676.146,-21.484,-38.574,11.719,-15.137,0.000
1681290676.150,-33.203,-45.410,4.395,-34.668,0.000
1681290676.154,-32.227,-41.504,6.348,-29.785,0.000
1681290676.158,-25.391,-35.645,6.348,-16.602,0.000
1681290676.162,-16.113,-39.551,5.859,-7.324,0.000
1681290676.166,-19.043,-42.969,0.977,-4.395,0.000
1681290676.170,-33.691,-48.340,-0.977,-25.879,0.000
1681290676.174,-33.203,-48.340,7.812,-32.715,0.000
1681290676.177,-21.484,-42.480,18.555,-12.207,0.000
1681290676.181,-8.301,-38.086,22.461,4.395,0.000
1681290676.185,-15.137,-37.598,9.277,1.465,0.000
1681290676.189,-31.250,-36.621,6.836,-20.020,0.000
1681290676.193,-31.738,-37.598,16.113,-28.320,0.000
1681290676.197,-23.926,-40.039,21.484,-17.578,0.000
1681290676.201,-14.648,-38.086,22.949,-0.977,0.000
1681290676.205,-11.230,-35.156,26.367,1.465,0.000
1681290676.209,-23.926,-38.086,20.020,-20.996,0.000
1681290676.213,-33.691,-44.434,12.695,-39.551,0.000
1681290676.217,-23.438,-41.504,18.555,-24.902,0.000
1681290676.220,-11.719,-34.180,28.320,-3.418,0.000
1681290676.224,-8.789,-29.785,31.738,5.371,0.000
1681290676.228,-20.996,-28.320,24.414,-7.324,0.000
1681290676.232,-36.133,-26.367,22.949,-27.344,0.000
1681290676.236,-28.320,-25.879,31.250,-19.531,0.000
1681290676.240,-14.160,-27.344,40.527,-4.883,0.000
1681290676.244,-18.066,-31.738,43.457,-7.324,0.000
1681290676.248,-29.785,-36.621,46.875,-18.555,0.000
1681290676.252,-35.645,-41.016,53.223,-30.273,0.000
1681290676.256,-33.691,-40.527,63.477,-26.367,0.000
1681290676.260,-26.855,-39.062,73.242,-5.859,0.000
1681290676.263,-23.438,-40.039,70.801,-3.906,0.000
1681290676.267,-27.832,-41.504,68.359,-20.020,0.000
1681290676.271,-35.645,-44.922,73.242,-47.363,0.000
1681290676.275,-36.133,-47.852,76.172,-48.828,0.000
1681290676.279,-25.391,-44.922,81.055,-16.113,0.000
1681290676.283,-24.902,-45.898,83.496,-5.859,0.000
1681290676.287,-36.621,-44.922,77.148,-38.086,0.000
1681290676.291,-37.109,-50.781,83.496,-37.598,0.000
1681290676.295,-11.719,-47.363,91.309,-5.371,0.000
1681290676.299,-18.066,-28.320,87.891,-25.879,0.000
1681290676.302,-53.223,-30.273,93.750,-48.340,0.000
1681290676.306,-51.758,-33.691,101.074,-47.852,0.000
1681290676.310,-53.711,-20.020,108.887,-62.988,0.000
1681290676.314,-59.570,-20.996,120.117,-65.918,0.000
1681290676.318,-56.641,-31.250,123.535,-55.176,0.000
1681290676.322,-46.387,-33.691,123.535,-36.621,0.000
1681290676.326,-51.270,-27.832,125.977,-44.922,0.000
1681290676.330,-67.383,-18.555,132.324,-66.406,0.000
1681290676.334,-69.336,-24.414,135.254,-72.266,0.000
1681290676.338,-59.082,-27.344,140.137,-58.594,0.000
1681290676.342,-44.922,-24.902,146.484,-33.203,0.000
1681290676.345,-41.992,-30.273,142.090,-40.039,0.000
1681290676.349,-48.828,-31.738,141.113,-61.523,0.000
1681290676.353,-42.480,-26.367,144.043,-61.523,0.000
1681290676.357,-33.691,-30.762,139.648,-49.805,0.000
1681290676.361,-26.855,-33.691,134.277,-35.645,0.000
1681290676.365,-28.809,-30.762,131.348,-29.297,0.000
1681290676.369,-41.016,-36.621,126.953,-40.527,0.000
1681290676.373,-45.898,-35.645,132.812,-46.387,0.000
1681290676.377,-42.480,-35.156,136.719,-40.527,0.000
1681290676.381,-38.574,-43.457,130.859,-26.367,0.000
1681290676.385,-40.039,-49.805,126.465,-26.855,0.000
1681290676.388,-40.039,-45.410,124.512,-47.363,0.000
1681290676.392,-43.945,-41.504,121.094,-54.688,0.000
1681290676.396,-43.457,-42.480,118.652,-37.598,0.000
1681290676.400,-35.156,-39.062,124.023,-27.832,0.000
1681290676.404,-34.668,-38.574,118.652,-37.598,0.000
1681290676.408,-45.410,-38.574,109.375,-48.340,0.000
1681290676.412,-50.293,-36.133,113.770,-54.199,0.000
1681290676.416,-40.039,-31.738,115.234,-40.039,0.000
1681290676.420,-30.273,-37.109,109.863,-17.090,0.000
1681290676.424,-28.320,-41.016,106.445,-10.742,0.000
1681290676.427,-34.180,-34.180,104.492,-22.461,0.000
1681290676.431,-44.922,-32.715,103.516,-45.410,0.000
1681290676.435,-41.504,-32.227,103.027,-42.969,0.000
1681290676.439,-31.738,-39.551,103.027,-11.230,0.000
1681290676.443,-28.320,-43.945,98.633,-2.930,0.000
1681290676.447,-30.762,-39.551,89.844,-18.066,0.000
1681290676.451,-32.715,-34.180,83.496,-33.691,0.000
1681290676.455,-30.762,-32.715,81.543,-35.645,0.000
1681290676.459,-30.762,-38.086,80.566,-23.926,0.000
1681290676.463,-26.367,-40.039,78.613,-20.508,0.000
1681290676.467,-23.438,-42.969,75.195,-28.809,0.000
1681290676.470,-25.391,-41.016,75.195,-39.551,0.000
1681290676.474,-30.762,-30.273,82.031,-41.504,0.000
1681290676.478,-26.367,-30.273,83.496,-23.438,0.000
1681290676.482,-23.438,-36.621,79.590,-15.137,0.000
1681290676.486,-33.203,-36.621,75.684,-27.832,0.000
1681290676.490,-42.969,-40.527,66.895,-44.922,0.000
1681290676.494,-40.527,-37.598,62.988,-45.898,0.000
1681290676.498,-33.203,-36.621,58.105,-35.156,0.000
1681290676.502,-28.809,-39.062,61.035,-29.785,0.000
1681290676.506,-30.762,-36.621,67.871,-37.598,0.000
1681290676.510,-41.504,-39.551,69.824,-37.598,0.000
1681290676.513,-38.086,-42.480,72.266,-29.297,0.000
1681290676.517,-30.273,-36.621,78.613,-22.461,0.000
1681290676.521,-25.879,-38.574,84.473,-15.625,0.000
1681290676.525,-17.578,-43.457,83.496,5.859,0.000
1681290676.529,-24.902,-34.668,81.055,0.488,0.000
1681290676.533,-41.504,-33.203,86.426,-39.551,0.000
1681290676.537,-33.691,-38.574,91.309,-36.133,0.000
1681290676.541,-13.184,-31.738,92.773,-14.648,0.000
1681290676.545,-17.090,-34.668,93.262,-17.090,0.000
1681290676.549,-27.344,-41.016,88.867,-25.391,0.000
1681290676.552,-30.762,-35.156,86.914,-37.598,0.000
1681290676.556,-25.391,-34.180,88.867,-31.250,0.000
1681290676.560,-17.578,-39.062,84.961,-12.207,0.000
1681290676.564,-18.066,-36.621,83.008,-7.324,0.000
1681290676.568,-27.832,-38.086,79.102,-17.090,0.000
1681290676.572,-34.180,-37.598,77.148,-37.598,0.000
1681290676.576,-27.832,-31.738,83.984,-36.133,0.000
1681290676.580,-20.508,-32.715,88.379,-19.531,0.000
1681290676.584,-20.996,-31.738,87.891,-16.602,0.000
1681290676.588,-27.344,-33.691,83.984,-31.738,0.000
1681290676.592,-27.832,-28.809,87.402,-38.086,0.000
1681290676.595,-28.320,-31.250,94.238,-26.855,0.000
1681290676.599,-16.602,-34.668,101.562,-12.207,0.000
1681290676.603,-13.184,-32.715,112.793,-10.742,0.000
1681290676.607,-20.508,-40.039,121.582,-15.625,0.000
1681290676.611,-15.625,-40.039,123.535,-39.551,0.000
1681290676.615,-14.648,-33.691,125.977,-46.387,0.000
1681290676.619,-9.277,-32.715,127.441,-12.695,0.000
1681290676.623,-8.301,-33.691,131.348,-3.418,0.000
1681290676.627,-20.020,-34.180,139.648,-17.578,0.000
1681290676.631,-31.738,-37.598,144.043,-41.504,0.000
1681290676.635,-33.691,-35.156,158.203,-44.922,0.000
1681290676.638,-24.414,-33.691,168.457,-21.484,0.000
1681290676.642,-19.043,-35.645,171.387,-12.207,0.000
1681290676.646,-21.973,-37.109,172.363,-22.461,0.000
1681290676.650,-24.414,-40.527,171.875,-32.227,0.000
1681290676.654,-30.273,-41.504,182.129,-35.645,0.000
1681290676.658,-20.996,-41.016,191.895,-25.879,0.000
1681290676.662,-10.742,-36.621,189.941,-15.137,0.000
1681290676.666,-22.461,-40.039,189.453,-20.996,0.000
1681290676.670,-38.574,-46.387,195.801,-45.898,0.000
1681290676.674,-34.180,-41.992,203.125,-48.340,0.000
1681290676.677,-22.461,-39.551,207.520,-20.996,0.000
1681290676.681,-22.949,-38.574,209.961,-13.184,0.000
1681290676.685,-27.344,-43.457,216.309,-19.043,0.000
1681290676.689,-34.180,-43.945,212.891,-35.645,0.000
1681290676.693,-42.480,-36.621,213.867,-50.293,0.000
1681290676.697,-38.574,-33.203,226.562,-36.621,0.000
1681290676.701,-35.156,-33.691,232.422,-22.461,0.000
1681290676.705,-34.668,-27.832,240.234,-21.484,0.000
1681290676.709,-35.156,-32.227,241.211,-32.715,0.000
1681290676.713,-42.480,-41.016,240.234,-42.480,0.000
1681290676.717,-42.480,-37.109,240.723,-40.039,0.000
1681290676.720,-39.551,-39.062,231.445,-29.785,0.000
1681290676.724,-36.621,-41.504,232.422,-22.461,0.000
1681290676.728,-45.410,-40.039,238.281,-35.156,0.000
1681290676.732,-53.711,-38.086,246.094,-53.223,0.000
1681290676.736,-42.969,-35.156,267.090,-46.387,0.000
1681290676.740,-33.691,-38.086,289.062,-39.062,0.000
1681290676.744,-40.527,-36.621,308.594,-35.645,0.000
1681290676.748,-48.828,-33.691,323.242,-45.410,0.000
1681290676.752,-55.176,-41.504,330.078,-63.965,0.000
1681290676.756,-51.270,-40.527,347.656,-51.270,0.000
1681290676.759,-36.621,-32.227,383.301,-31.250,0.000
1681290676.763,-37.109,-32.227,402.344,-34.180,0.000
1681290676.767,-42.969,-36.133,399.902,-42.480,0.000
1681290676.771,-42.969,-34.668,408.691,-48.828,0.000
1681290676.775,-41.504,-30.273,433.594,-49.316,0.000
1681290676.779,-29.785,-27.832,451.660,-37.109,0.000
1681290676.783,-31.250,-33.203,458.496,-37.598,0.000
1681290676.787,-46.387,-35.156,461.914,-55.664,0.000
1681290676.791,-56.152,-34.180,470.703,-62.988,0.000
1681290676.795,-66.406,-34.668,488.770,-59.082,0.000
1681290676.799,-66.895,-34.180,504.883,-51.758,0.000
1681290676.802,-59.082,-31.250,528.809,-51.270,0.000
1681290676.806,-49.316,-21.973,547.852,-58.594,0.000
1681290676.810,-55.176,-20.996,560.547,-66.895,0.000
1681290676.814,-93.750,-21.484,584.961,-90.820,0.000
1681290676.818,-114.746,-10.254,598.145,-109.863,0.000
1681290676.822,-118.164,-8.301,602.539,-104.004,0.000
1681290676.826,-124.512,-8.301,604.980,-120.117,0.000
1681290676.830,-136.230,-6.836,605.469,-167.480,0.000
1681290676.834,-145.508,-6.836,606.934,-180.664,0.000
1681290676.838,-156.738,-6.836,616.699,-174.805,0.000
1681290676.842,-160.645,-9.277,640.625,-167.480,0.000
1681290676.845,-172.852,-8.301,660.645,-176.270,0.000
1681290676.849,-184.570,-7.812,671.387,-196.777,0.000
1681290676.853,-194.336,-9.277,685.547,-218.750,0.000
1681290676.857,-198.242,-12.207,708.984,-216.797,0.000
1681290676.861,-187.500,-20.996,734.375,-200.684,0.000
1681290676.865,-197.754,-22.949,768.066,-202.637,0.000
1681290676.869,-200.195,-17.090,802.246,-206.543,0.000
1681290676.873,-197.266,-15.625,835.938,-209.961,0.000
1681290676.877,-194.336,-12.695,862.793,-202.637,0.000
1681290676.881,-200.195,-11.230,895.996,-194.824,0.000
1681290676.884,-197.754,-19.043,925.293,-187.988,0.000
1681290676.888,-202.148,-26.855,951.660,-195.312,0.000
1681290676.892,-201.172,-27.344,972.656,-193.359,0.000
1681290676.896,-184.082,-26.367,972.656,-179.688,0.000
1681290676.900,-160.156,-31.738,972.656,-156.250,0.000
1681290676.904,-145.508,-34.668,973.145,-139.648,0.000
1681290676.908,-146.484,-38.086,972.656,-137.207,0.000
1681290676.912,-128.418,-41.016,973.145,-123.535,0.000
1681290676.916,-121.582,-45.410,973.145,-123.535,0.000
1681290676.920,-106.445,-49.316,972.656,-101.074,0.000
1681290676.924,-89.355,-54.199,973.145,-83.008,0.000
1681290676.927,-81.055,-52.734,973.145,-83.984,0.000
1681290676.931,-64.453,-53.223,973.145,-71.777,0.000
1681290676.935,-69.824,-61.035,972.656,-70.312,0.000
1681290676.939,-76.660,-62.500,973.145,-66.406,0.000
1681290676.943,-40.527,-60.547,973.145,-32.715,0.000
1681290676.947,-27.344,-61.035,973.145,-36.621,0.000
1681290676.951,-34.180,-61.523,973.145,-47.363,0.000
1681290676.955,-24.414,-62.988,973.145,-24.902,0.000
1681290676.959,-20.020,-66.895,972.656,-20.508,0.000
1681290676.963,-4.395,-66.406,972.656,-8.789,0.000
1681290676.967,2.441,-75.195,973.145,5.859,0.000
1681290676.970,16.113,-74.219,973.145,-8.789,0.000
1681290676.974,20.508,-60.059,973.145,-16.602,0.000
1681290676.978,21.484,-52.734,973.145,11.230,0.000
1681290676.982,25.879,-56.641,973.145,28.809,0.000
1681290676.986,28.320,-62.500,972.656,17.578,0.000
1681290676.990,31.738,-63.477,973.145,8.789,0.000
1681290676.994,31.738,-62.988,973.145,19.043,0.000
1681290676.998,30.762,-59.082,973.145,29.297,0.000
1681290677.002,29.297,-57.617,973.145,26.367,0.000
1681290677.006,29.785,-61.523,973.145,23.438,0.000
1681290677.009,28.809,-63.477,973.145,20.996,0.000
1681290677.013,20.996,-60.059,973.145,7.812,0.000
1681290677.017,19.531,-57.129,973.145,9.766,0.000
1681290677.021,27.344,-55.664,973.145,36.133,0.000
1681290677.025,27.832,-54.199,973.145,41.504,0.000
1681290677.029,23.438,-53.711,973.145,29.297,0.000
1681290677.033,24.414,-45.898,973.145,22.949,0.000
1681290677.037,28.320,-41.016,973.145,18.066,0.000
1681290677.041,41.504,-44.434,973.145,23.926,0.000
1681290677.045,42.480,-46.875,973.145,23.926,0.000
1681290677.049,40.039,-43.457,973.145,17.090,0.000
1681290677.052,44.434,-41.992,973.145,14.648,0.000
1681290677.056,45.898,-45.410,973.145,21.973,0.000
1681290677.060,53.711,-38.086,973.145,35.645,0.000
1681290677.064,53.711,-31.738,973.145,31.738,0.000
1681290677.068,46.387,-40.039,973.145,27.344,0.000
1681290677.072,40.527,-46.875,973.145,25.879,0.000
1681290677.076,40.527,-42.480,973.145,30.273,0.000
1681290677.080,51.270,-37.598,972.656,37.598,0.000
1681290677.084,49.805,-41.504,972.656,41.504,0.000
1681290677.088,42.969,-44.922,973.145,33.203,0.000
1681290677.092,42.480,-41.016,973.145,24.414,0.000
1681290677.095,41.016,-41.992,973.145,30.273,0.000
1681290677.099,38.086,-43.945,973.145,27.344,0.000
1681290677.103,31.738,-42.969,973.145,16.602,0.000
1681290677.107,30.273,-38.086,973.145,15.137,0.000
1681290677.111,29.785,-38.574,973.145,17.578,0.000
1681290677.115,29.785,-37.109,973.145,11.230,0.000
1681290677.119,27.344,-32.715,972.656,10.742,0.000
1681290677.123,21.973,-40.039,972.656,15.625,0.000
1681290677.127,16.602,-45.898,972.656,13.672,0.000
1681290677.131,23.438,-47.363,972.656,20.996,0.000
1681290677.134,30.762,-49.805,973.145,20.996,0.000
1681290677.138,9.277,-47.363,973.145,14.648,0.000
1681290677.142,-4.395,-44.922,973.145,5.859,0.000
1681290677.146,9.277,-48.828,973.145,7.324,0.000
1681290677.150,7.812,-50.293,973.145,0.488,0.000
1681290677.154,0.977,-52.246,973.145,-19.043,0.000
1681290677.158,0.488,-52.734,973.145,-2.930,0.000
1681290677.162,12.695,-51.758,973.145,23.926,0.000
1681290677.166,12.695,-50.293,973.145,9.277,0.000
1681290677.170,-0.977,-53.223,972.656,-7.324,0.000
1681290677.174,-1.465,-57.617,973.145,10.254,0.000
1681290677.177,1.465,-56.152,973.145,5.859,0.000
1681290677.181,11.230,-55.176,973.145,0.977,0.000
1681290677.185,11.719,-51.270,973.145,10.254,0.000
1681290677.189,5.859,-49.316,972.656,6.836,0.000
1681290677.193,5.371,-51.758,973.145,4.395,0.000
1681290677.197,6.836,-51.758,973.145,7.324,0.000
1681290677.201,0.977,-52.246,973.145,12.695,0.000
1681290677.205,-10.254,-63.965,972.656,11.230,0.000
1681290677.209,-18.555,-67.383,972.656,-0.488,0.000
1681290677.213,-10.742,-63.477,972.656,-17.578,0.000
1681290677.216,-4.883,-64.941,972.656,-18.066,0.000
1681290677.220,-10.254,-63.477,972.656,8.301,0.000
1681290677.224,-8.301,-61.035,973.145,23.926,0.000
1681290677.228,-2.930,-58.594,973.145,23.438,0.000
1681290677.232,-0.977,-64.941,973.145,18.066,0.000
1681290677.236,-2.441,-64.453,973.145,3.906,0.000
1681290677.240,0.488,-58.105,972.656,1.953,0.000
1681290677.244,3.906,-62.012,973.145,0.000,0.000
1681290677.248,-6.348,-63.965,973.145,-2.441,0.000
1681290677.252,-13.672,-63.965,972.656,-7.324,0.000
1681290677.256,-1.953,-60.547,973.145,-10.254,0.000
1681290677.259,13.184,-58.594,973.145,0.977,0.000
1681290677.263,5.371,-63.965,973.145,11.230,0.000
1681290677.267,1.465,-59.082,973.145,12.207,0.000
1681290677.271,4.883,-47.363,973.145,3.418,0.000
1681290677.275,-5.371,-47.363,973.145,-0.977,0.000
1681290677.279,-4.883,-61.523,973.145,12.207,0.000
1681290677.283,1.953,-64.453,973.145,15.625,0.000
1681290677.287,-2.441,-59.570,972.656,2.441,0.000
1681290677.291,-12.207,-60.059,973.145,-13.184,0.000
1681290677.295,-18.066,-58.594,972.656,-16.602,0.000
1681290677.299,-16.602,-54.199,973.145,-4.883,0.000
1681290677.302,-19.531,-61.035,973.145,0.488,0.000
1681290677.306,-29.785,-65.918,972.656,-10.742,0.000
1681290677.310,-31.250,-65.430,973.145,-20.996,0.000
1681290677.314,-24.414,-58.105,972.656,-23.438,0.000
1681290677.318,-20.020,-53.711,972.656,-16.602,0.000
1681290677.322,-23.438,-60.547,972.656,-5.371,0.000
1681290677.326,-24.414,-64.453,970.703,-4.883,0.000
1681290677.330,-31.250,-63.965,976.562,-25.391,0.000
1681290677.334,-36.621,-64.941,940.918,-31.738,0.000
1681290677.338,-35.156,-65.918,875.488,-31.738,0.000
1681290677.341,-29.297,-59.082,844.727,-24.414,0.000
1681290677.345,-17.090,-56.641,819.824,-19.043,0.000
1681290677.349,-26.855,-58.594,791.504,-33.691,0.000
1681290677.353,-36.621,-56.641,755.371,-42.480,0.000
1681290677.357,-25.391,-56.641,729.492,-32.227,0.000
1681290677.361,-22.949,-53.711,721.191,-24.414,0.000
1681290677.365,-27.832,-54.688,704.590,-26.367,0.000
1681290677.369,-28.809,-64.453,685.059,-28.809,0.000
1681290677.373,-31.738,-70.312,671.875,-35.156,0.000
1681290677.377,-36.621,-71.777,654.297,-39.062,0.000
1681290677.381,-37.598,-73.730,644.043,-23.926,0.000
1681290677.384,-34.668,-70.801,627.930,-22.461,0.000
1681290677.388,-37.598,-66.895,668.945,-34.668,0.000
1681290677.392,-49.316,-70.801,750.000,-28.809,0.000
1681290677.396,-55.176,-78.613,714.844,-27.344,0.000
1681290677.400,-48.340,-75.195,665.527,-26.855,0.000
1681290677.404,-39.551,-65.430,634.766,-20.508,0.000
1681290677.408,-35.645,-63.965,603.027,-27.344,0.000
1681290677.412,-41.992,-70.312,571.289,-38.574,0.000
1681290677.416,-44.434,-69.824,532.227,-32.227,0.000
1681290677.420,-41.016,-64.941,511.719,-17.090,0.000
1681290677.424,-35.156,-66.895,506.836,-16.602,0.000
1681290677.427,-36.621,-65.918,497.559,-26.367,0.000
1681290677.431,-44.922,-59.082,492.188,-37.109,0.000
1681290677.435,-44.434,-57.129,496.094,-36.621,0.000
1681290677.439,-40.039,-57.129,490.234,-29.785,0.000
1681290677.443,-42.480,-59.082,478.027,-31.738,0.000
1681290677.447,-46.387,-66.895,480.469,-46.875,0.000
1681290677.451,-49.316,-67.871,482.910,-68.848,0.000
1681290677.455,-56.152,-68.359,485.352,-68.848,0.000
1681290677.459,-50.293,-67.383,485.352,-48.828,0.000
1681290677.463,-43.457,-59.570,482.422,-39.062,0.000
1681290677.466,-49.316,-64.453,479.980,-46.387,0.000
1681290677.470,-46.875,-65.430,477.539,-54.688,0.000
1681290677.474,-49.316,-59.570,477.539,-59.082,0.000
1681290677.478,-52.246,-61.035,484.863,-45.410,0.000
1681290677.482,-46.387,-61.523,486.328,-39.551,0.000
1681290677.486,-43.945,-67.383,478.516,-48.828,0.000
1681290677.490,-44.922,-63.477,478.516,-48.828,0.000
1681290677.494,-47.852,-57.617,475.098,-52.246,0.000
1681290677.498,-46.387,-62.012,472.656,-42.969,0.000
1681290677.502,-35.645,-58.594,474.609,-31.250,0.000
1681290677.506,-38.574,-55.176,465.332,-32.715,0.000
1681290677.509,-35.156,-65.430,463.379,-29.785,0.000
1681290677.513,-33.203,-67.871,464.355,-40.527,0.000
1681290677.517,-53.223,-59.570,456.055,-54.199,0.000
1681290677.521,-48.828,-61.035,454.102,-40.039,0.000
1681290677.525,-42.969,-60.059,458.496,-34.668,0.000
1681290677.529,-55.176,-56.152,447.266,-45.898,0.000
1681290677.533,-57.129,-59.570,434.082,-49.316,0.000
1681290677.537,-64.453,-61.035,436.035,-46.875,0.000
1681290677.541,-57.129,-61.035,437.012,-42.969,0.000
1681290677.545,-49.805,-63.477,430.664,-43.457,0.000
1681290677.549,-51.270,-57.617,415.039,-43.457,0.000
1681290677.552,-47.852,-58.594,403.809,-37.109,0.000
1681290677.556,-49.805,-65.430,408.203,-23.926,0.000
1681290677.560,-44.922,-67.871,401.855,-16.113,0.000
1681290677.564,-35.156,-69.824,391.602,-30.273,0.000
1681290677.568,-32.227,-66.895,383.789,-57.617,0.000
1681290677.572,-39.062,-66.406,371.582,-73.242,0.000
1681290677.576,-41.992,-62.988,368.652,-57.617,0.000
1681290677.580,-21.973,-58.105,374.023,-35.156,0.000
1681290677.584,-25.879,-59.082,380.859,-39.551,0.000
1681290677.588,-30.762,-56.641,393.555,-43.945,0.000
1681290677.591,-25.879,-52.734,402.344,-40.527,0.000
1681290677.595,-35.156,-53.223,403.809,-37.109,0.000
1681290677.599,-35.156,-52.246,404.785,-29.297,0.000
1681290677.603,-32.227,-58.105,402.344,-26.855,0.000
1681290677.607,-34.668,-63.965,395.508,-28.320,0.000
1681290677.611,-38.086,-60.547,385.742,-37.109,0.000
1681290677.615,-40.039,-62.988,382.324,-34.668,0.000
1681290677.619,-41.504,-63.477,377.930,-25.391,0.000
1681290677.623,-31.250,-58.105,374.023,-21.973,0.000
1681290677.627,-24.902,-57.129,369.141,-24.414,0.000
1681290677.631,-23.438,-53.711,360.840,-32.715,0.000
1681290677.634,-27.344,-53.223,356.445,-39.062,0.000
1681290677.638,-27.344,-68.359,362.305,-34.668,0.000
1681290677.642,-26.855,-69.824,375.977,-20.020,0.000
1681290677.646,-28.809,-63.965,380.371,-23.926,0.000
1681290677.650,-36.621,-71.777,370.605,-39.551,0.000
1681290677.654,-46.387,-68.359,369.141,-47.363,0.000
1681290677.658,-44.434,-68.359,371.094,-45.410,0.000
1681290677.662,-39.551,-70.312,366.699,-34.180,0.000
1681290677.666,-41.504,-63.477,358.887,-25.391,0.000
1681290677.670,-53.223,-63.477,354.004,-35.645,0.000
1681290677.674,-46.875,-60.547,354.004,-42.480,0.000
1681290677.677,-42.480,-57.617,351.562,-33.691,0.000
1681290677.681,-43.945,-51.758,344.727,-27.344,0.000
1681290677.685,-41.992,-51.758,331.543,-28.320,0.000
1681290677.689,-42.480,-53.711,343.750,-37.598,0.000
1681290677.693,-35.156,-51.270,381.348,-42.480,0.000
1681290677.697,-42.480,-54.688,414.062,-41.016,0.000
1681290677.701,-45.410,-51.270,466.797,-20.996,0.000
1681290677.705,-36.133,-53.223,511.719,-10.742,0.000
1681290677.709,-41.016,-58.105,507.324,-25.391,0.000
1681290677.713,-41.016,-52.734,487.793,-30.273,0.000
1681290677.716,-39.551,-52.246,474.609,-20.996,0.000
1681290677.720,-33.691,-49.316,461.914,-11.719,0.000
1681290677.724,-20.508,-48.340,435.547,-1.465,0.000
1681290677.728,-27.832,-55.664,408.203,-9.277,0.000
1681290677.732,-38.086,-62.012,387.695,-18.066,0.000
1681290677.736,-35.156,-57.129,369.629,-13.184,0.000
1681290677.740,-32.227,-52.734,352.051,-7.324,0.000
1681290677.744,-29.785,-57.617,335.449,-0.488,0.000
1681290677.748,-23.438,-56.641,322.266,-15.137,0.000
1681290677.752,-21.484,-51.270,301.270,-38.574,0.000
1681290677.756,-30.273,-60.547,284.668,-43.945,0.000
1681290677.759,-24.902,-60.547,289.062,-23.438,0.000
1681290677.763,-22.461,-57.129,291.992,-9.277,0.000
1681290677.767,-33.691,-59.082,285.156,-23.438,0.000
1681290677.771,-35.645,-56.152,280.273,-37.109,0.000
1681290677.775,-37.598,-56.641,273.926,-39.551,0.000
1681290677.779,-42.969,-57.617,274.902,-33.691,0.000
1681290677.783,-44.922,-53.711,290.039,-27.344,0.000
1681290677.787,-41.504,-51.758,289.062,-31.738,0.000
1681290677.791,-46.387,-56.152,283.203,-38.574,0.000
1681290677.795,-42.969,-52.734,282.715,-35.156,0.000
1681290677.798,-38.574,-53.223,268.555,-41.992,0.000
1681290677.802,-36.133,-58.594,219.238,-37.109,0.000
1681290677.806,-44.922,-58.105,167.969,-20.508,0.000
1681290677.810,-54.688,-55.176,155.273,-25.879,0.000
1681290677.814,-38.086,-50.781,148.438,-26.367,0.000
1681290677.818,-27.832,-47.852,139.648,-16.602,0.000
1681290677.822,-38.086,-58.105,131.348,-24.414,0.000
1681290677.826,-36.621,-65.918,135.742,-20.508,0.000
1681290677.830,-34.180,-61.035,146.484,-26.367,0.000
1681290677.834,-45.410,-59.082,147.461,-41.016,0.000
1681290677.838,-37.109,-61.035,149.414,-32.227,0.000
1681290677.841,-28.809,-57.617,149.414,-25.879,0.000
1681290677.845,-37.598,-62.012,149.414,-30.762,0.000
1681290677.849,-41.992,-64.453,149.902,-41.504,0.000
1681290677.853,-43.945,-54.688,152.832,-54.199,0.000
1681290677.857,-39.551,-54.688,161.621,-47.363,0.000
1681290677.861,-34.668,-58.105,172.852,-27.832,0.000
1681290677.865,-15.625,-59.082,184.082,-7.324,0.000
1681290677.869,-18.066,-49.316,179.688,-21.973,0.000
1681290677.873,-53.711,-44.434,179.688,-62.988,0.000
1681290677.877,-53.223,-45.410,191.406,-57.617,0.000
1681290677.881,-37.109,-53.223,199.707,-32.715,0.000
1681290677.884,-48.340,-62.500,199.219,-38.086,0.000
1681290677.888,-59.570,-55.664,199.219,-58.594,0.000
1681290677.892,-66.406,-58.105,204.590,-64.453,0.000
1681290677.896,-74.707,-58.594,199.707,-63.965,0.000
1681290677.900,-68.848,-54.199,207.520,-57.129,0.000
1681290677.904,-61.523,-52.734,216.309,-59.082,0.000
1681290677.908,-67.871,-51.758,214.355,-62.012,0.000
1681290677.912,-64.453,-57.617,219.727,-57.129,0.000
1681290677.916,-55.664,-55.664,222.656,-59.082,0.000
1681290677.920,-47.363,-53.711,225.098,-50.293,0.000
1681290677.923,-42.969,-58.105,221.191,-37.598,0.000
1681290677.927,-43.945,-51.270,258.789,-38.574,0.000
1681290677.931,-43.457,-40.039,359.863,-41.504,0.000
1681290677.935,-47.363,-47.363,430.664,-44.434,0.000
1681290677.939,-42.969,-55.176,458.008,-29.785,0.000
1681290677.943,-40.527,-51.270,476.562,-23.926,0.000
1681290677.947,-40.527,-54.199,511.719,-32.715,0.000
1681290677.951,-40.039,-55.664,532.715,-40.039,0.000
1681290677.955,-42.480,-58.105,521.973,-43.945,0.000
1681290677.959,-42.969,-61.523,497.559,-33.203,0.000
1681290677.963,-39.551,-57.617,476.074,-30.273,0.000
1681290677.966,-34.668,-55.176,460.449,-45.898,0.000
1681290677.970,-35.156,-54.688,451.172,-53.711,0.000
1681290677.974,-42.480,-62.988,448.730,-56.641,0.000
1681290677.978,-40.039,-61.035,441.895,-49.316,0.000
1681290677.982,-35.645,-60.059,434.570,-36.621,0.000
1681290677.986,-38.086,-61.523,432.617,-33.203,0.000
1681290677.990,-38.574,-52.734,428.223,-53.711,0.000
1681290677.994,-36.621,-57.129,426.270,-60.059,0.000
1681290677.998,-32.715,-60.547,420.410,-45.410,0.000
1681290678.002,-41.992,-62.988,411.133,-34.668,0.000
1681290678.006,-39.551,-61.523,408.691,-30.273,0.000
1681290678.009,-32.227,-53.223,403.320,-35.156,0.000
1681290678.013,-40.039,-51.270,391.602,-38.574,0.000
1681290678.017,-45.410,-50.781,388.672,-34.668,0.000
1681290678.021,-38.086,-56.152,390.137,-25.391,0.000
1681290678.025,-34.668,-60.547,375.000,-25.879,0.000
1681290678.029,-40.039,-58.594,363.281,-34.668,0.000
1681290678.033,-42.969,-60.059,353.516,-48.340,0.000
1681290678.037,-48.828,-63.477,342.285,-52.246,0.000
1681290678.041,-43.945,-58.105,337.402,-31.250,0.000
1681290678.045,-37.598,-58.594,334.473,-25.879,0.000
1681290678.048,-48.828,-64.453,331.055,-34.668,0.000
1681290678.052,-57.617,-66.406,325.195,-41.992,0.000
1681290678.056,-51.758,-63.477,320.801,-41.504,0.000
1681290678.060,-45.898,-57.617,313.477,-42.969,0.000
1681290678.064,-34.668,-49.316,311.523,-39.062,0.000
1681290678.068,-33.691,-52.734,307.129,-39.062,0.000
1681290678.072,-41.504,-63.477,290.527,-55.176,0.000
1681290678.076,-36.621,-59.082,291.504,-52.734,0.000
1681290678.080,-37.109,-59.570,297.852,-45.410,0.000
1681290678.084,-35.156,-67.871,283.203,-47.852,0.000
1681290678.088,-43.945,-62.500,281.250,-41.504,0.000
1681290678.091,-43.457,-62.012,279.297,-41.992,0.000
1681290678.095,-31.250,-59.570,268.555,-44.434,0.000
1681290678.099,-39.062,-58.105,270.508,-33.691,0.000
1681290678.103,-43.945,-64.453,268.555,-27.344,0.000
1681290678.107,-41.992,-61.035,262.695,-24.414,0.000
1681290678.111,-45.898,-65.430,253.906,-32.715,0.000
1681290678.115,-49.805,-72.754,244.141,-49.805,0.000
1681290678.119,-50.781,-74.219,238.770,-39.062,0.000
1681290678.123,-45.898,-68.359,235.352,-29.297,0.000
1681290678.127,-43.457,-62.500,229.492,-41.504,0.000
1681290678.131,-44.922,-60.547,198.730,-42.969,0.000
1681290678.134,-45.410,-64.941,154.785,-52.734,0.000
1681290678.138,-45.410,-70.801,122.070,-47.852,0.000
1681290678.142,-43.945,-60.547,116.699,-25.879,0.000
1681290678.146,-43.457,-55.176,134.277,-30.762,0.000
1681290678.150,-39.551,-55.664,148.926,-41.504,0.000
1681290678.154,-42.969,-56.641,150.879,-36.133,0.000
1681290678.158,-47.363,-53.711,157.227,-33.691,0.000
1681290678.162,-44.434,-55.664,169.922,-33.691,0.000
1681290678.166,-43.945,-71.289,171.875,-37.109,0.000
1681290678.170,-52.246,-68.848,169.922,-51.270,0.000
1681290678.173,-49.805,-55.176,176.758,-46.875,0.000
1681290678.177,-50.293,-59.570,171.875,-31.250,0.000
1681290678.181,-56.641,-68.359,165.527,-24.902,0.000
1681290678.185,-59.082,-63.477,172.852,-38.086,0.000
1681290678.189,-56.641,-67.383,176.270,-56.152,0.000
1681290678.193,-57.129,-62.012,173.340,-56.152,0.000
1681290678.197,-50.781,-56.641,168.945,-44.922,0.000
1681290678.201,-37.598,-64.941,162.109,-40.527,0.000
1681290678.205,-34.668,-63.477,161.133,-41.016,0.000
1681290678.209,-40.039,-62.012,166.016,-39.062,0.000
1681290678.213,-45.410,-62.988,166.016,-43.457,0.000
1681290678.216,-44.434,-54.199,168.457,-45.410,0.000
1681290678.220,-23.926,-52.734,181.641,-26.855,0.000
1681290678.224,-25.879,-56.152,188.477,-27.832,0.000
1681290678.228,-51.758,-52.246,194.336,-55.176,0.000
1681290678.232,-48.828,-53.223,220.215,-58.105,0.000
1681290678.236,-42.969,-59.082,376.953,-51.758,0.000
1681290678.240,-43.945,-62.500,589.844,-48.340,0.000
1681290678.244,-40.039,-57.617,649.414,-41.504,0.000
1681290678.248,-39.062,-53.223,635.254,-37.109,0.000
1681290678.252,-42.969,-57.129,617.188,-44.434,0.000
1681290678.256,-51.270,-63.477,594.727,-44.922,0.000
1681290678.259,-51.270,-65.918,575.684,-42.480,0.000
1681290678.263,-41.992,-68.848,552.734,-39.062,0.000
1681290678.267,-31.250,-64.941,536.621,-28.809,0.000
1681290678.271,-32.715,-61.035,524.902,-35.645,0.000
1681290678.275,-40.039,-63.477,502.930,-48.340,0.000
1681290678.279,-35.156,-58.105,468.262,-42.969,0.000
1681290678.283,-30.273,-55.176,522.949,-32.715,0.000
1681290678.287,-27.344,-49.316,779.297,-38.086,0.000
1681290678.291,-34.668,-50.781,921.387,-51.270,0.000
1681290678.295,-38.086,-56.152,884.277,-50.293,0.000
1681290678.298,-35.645,-54.688,850.586,-39.062,0.000
1681290678.302,-41.992,-61.523,812.988,-35.156,0.000
1681290678.306,-36.133,-61.523,779.785,-32.715,0.000
1681290678.310,-36.621,-59.570,746.094,-38.574,0.000
1681290678.314,-44.922,-62.012,711.914,-47.852,0.000
1681290678.318,-39.551,-61.035,680.664,-42.969,0.000
1681290678.322,-27.832,-62.500,652.344,-34.180,0.000
1681290678.326,-26.367,-63.477,632.324,-26.855,0.000
1681290678.330,-27.832,-54.199,595.215,-33.203,0.000
1681290678.334,-27.832,-46.387,554.199,-40.039,0.000
1681290678.338,-31.250,-52.734,537.109,-39.062,0.000
1681290678.341,-29.785,-59.082,512.207,-36.133,0.000
1681290678.345,-27.832,-53.711,491.699,-21.973,0.000
1681290678.349,-31.738,-49.805,482.422,-29.297,0.000
1681290678.353,-46.875,-57.617,452.637,-53.223,0.000
1681290678.357,-46.875,-63.477,424.316,-49.316,0.000
1681290678.361,-32.715,-55.176,414.551,-27.832,0.000
1681290678.365,-36.133,-52.246,404.785,-24.902,0.000
1681290678.369,-50.293,-68.359,396.973,-43.457,0.000
1681290678.373,-44.922,-67.383,389.160,-51.758,0.000
1681290678.377,-34.668,-56.641,374.512,-58.594,0.000
1681290678.381,-39.062,-59.082,364.258,-52.734,0.000
1681290678.384,-37.109,-60.547,358.887,-26.855,0.000
1681290678.388,-42.480,-62.988,348.145,-32.227,0.000
1681290678.392,-50.781,-63.965,346.191,-44.922,0.000
1681290678.396,-49.316,-61.035,345.703,-41.016,0.000
1681290678.400,-40.039,-57.617,337.891,-36.133,0.000
1681290678.404,-32.227,-54.199,331.055,-27.832,0.000
1681290678.408,-38.574,-58.594,318.359,-31.250,0.000
1681290678.412,-41.992,-60.547,304.688,-43.457,0.000
1681290678.416,-45.898,-59.570,290.527,-55.664,0.000
1681290678.420,-42.969,-61.523,280.273,-46.875,0.000
1681290678.423,-34.668,-54.688,268.066,-35.156,0.000
1681290678.427,-37.598,-56.152,253.906,-40.039,0.000
1681290678.431,-44.434,-63.965,254.395,-41.992,0.000
1681290678.435,-46.875,-63.477,249.512,-38.086,0.000
1681290678.439,-41.992,-61.523,242.188,-33.691,0.000
1681290678.443,-41.992,-62.988,232.910,-31.250,0.000
1681290678.447,-44.922,-68.359,221.680,-30.762,0.000
1681290678.451,-45.898,-64.941,216.797,-42.969,0.000
1681290678.455,-51.758,-61.035,214.844,-55.176,0.000
1681290678.459,-50.781,-64.941,213.867,-31.738,0.000
1681290678.463,-41.016,-65.430,211.914,-12.207,0.000
1681290678.466,-41.992,-68.848,206.543,-25.391,0.000
1681290678.470,-41.992,-65.430,204.590,-38.086,0.000
1681290678.474,-38.574,-51.270,203.613,-39.551,0.000
1681290678.478,-44.922,-54.688,198.242,-42.969,0.000
1681290678.482,-51.270,-62.988,192.383,-34.180,0.000
1681290678.486,-52.246,-62.988,192.383,-29.785,0.000
1681290678.490,-50.293,-64.453,193.848,-37.598,0.000
1681290678.494,-50.293,-62.500,194.336,-36.621,0.000
1681290678.498,-49.805,-58.105,198.730,-34.180,0.000
1681290678.502,-41.992,-62.500,201.660,-33.691,0.000
1681290678.505,-34.180,-59.082,202.148,-31.738,0.000
1681290678.509,-33.691,-49.805,204.590,-33.691,0.000
1681290678.513,-43.945,-52.734,212.402,-43.945,0.000
1681290678.517,-46.875,-60.059,199.219,-37.598,0.000
1681290678.521,-36.621,-61.035,151.855,-28.320,0.000
1681290678.525,-31.738,-57.617,135.254,-31.250,0.000
1681290678.529,-34.668,-65.430,152.344,-34.668,0.000
1681290678.533,-40.527,-63.965,167.480,-46.875,0.000
1681290678.537,-46.387,-57.129,177.246,-44.922,0.000
1681290678.541,-49.805,-57.617,178.223,-37.109,0.000
1681290678.545,-38.086,-55.176,184.570,-26.855,0.000
1681290678.548,-36.133,-57.129,181.641,-31.738,0.000
1681290678.552,-41.504,-54.688,176.270,-43.945,0.000
1681290678.556,-34.668,-50.781,183.105,-38.574,0.000
1681290678.560,-36.133,-53.711,177.734,-35.645,0.000
1681290678.564,-43.457,-56.152,169.922,-31.250,0.000
1681290678.568,-37.109,-55.664,173.340,-32.715,0.000
1681290678.572,-32.227,-44.434,177.246,-36.133,0.000
1681290678.576,-31.250,-42.480,178.223,-39.062,0.000
1681290678.580,-30.273,-53.223,184.082,-34.180,0.000
1681290678.584,-29.297,-55.664,187.500,-20.020,0.000
1681290678.588,-34.180,-58.105,181.152,-24.902,0.000
1681290678.591,-42.480,-63.965,166.992,-37.598,0.000
1681290678.595,-42.969,-58.594,151.367,-41.016,0.000
1681290678.599,-36.133,-52.734,155.273,-31.738,0.000
1681290678.603,-38.086,-59.082,166.016,-24.902,0.000
1681290678.607,-40.527,-64.941,165.527,-41.504,0.000
1681290678.611,-38.574,-62.500,161.133,-49.316,0.000
1681290678.615,-38.574,-61.035,157.227,-44.434,0.000
1681290678.619,-35.156,-59.570,159.668,-44.434,0.000
1681290678.623,-37.598,-51.270,164.551,-34.180,0.000
1681290678.627,-43.457,-52.246,189.453,-36.133,0.000
1681290678.630,-41.016,-62.500,209.473,-41.016,0.000
1681290678.634,-40.039,-61.523,197.754,-39.551,0.000
1681290678.638,-35.156,-59.082,187.500,-39.062,0.000
1681290678.642,-32.227,-61.035,181.641,-30.273,0.000
1681290678.646,-36.621,-60.059,186.523,-21.973,0.000
1681290678.650,-44.434,-57.617,203.125,-37.598,0.000
1681290678.654,-47.363,-57.617,209.473,-48.828,0.000
1681290678.658,-37.598,-53.223,213.379,-40.039,0.000
1681290678.662,-31.738,-51.758,220.215,-29.297,0.000
1681290678.666,-36.621,-57.617,216.797,-21.484,0.000
1681290678.670,-43.457,-57.129,212.891,-26.855,0.000
1681290678.673,-51.270,-56.152,209.961,-36.133,0.000
1681290678.677,-47.363,-54.688,204.590,-32.715,0.000
1681290678.681,-33.691,-51.758,212.891,-27.832,0.000
1681290678.685,-31.250,-54.688,223.633,-25.879,0.000
1681290678.689,-31.250,-54.199,227.051,-27.832,0.000
1681290678.693,-32.715,-48.340,229.980,-39.062,0.000
1681290678.697,-34.668,-54.199,231.445,-40.527,0.000
1681290678.701,-33.691,-61.035,233.887,-20.996,0.000
1681290678.705,-33.203,-61.523,232.422,-2.441,0.000
1681290678.709,-32.227,-58.594,232.910,-8.789,0.000
1681290678.713,-36.133,-56.641,228.027,-33.691,0.000
1681290678.716,-41.504,-60.059,220.703,-45.410,0.000
1681290678.720,-40.039,-59.570,221.191,-37.109,0.000
1681290678.724,-36.621,-58.594,222.168,-26.855,0.000
1681290678.728,-35.156,-52.734,220.703,-34.180,0.000
1681290678.732,-36.133,-49.316,215.820,-44.434,0.000
1681290678.736,-39.551,-49.316,214.844,-38.086,0.000
1681290678.740,-31.250,-43.945,215.820,-26.367,0.000
1681290678.744,-25.879,-46.875,205.566,-27.344,0.000
1681290678.748,-35.645,-50.293,204.102,-29.785,0.000
1681290678.752,-47.363,-46.875,206.543,-37.109,0.000
1681290678.755,-49.316,-52.734,205.566,-43.457,0.000
1681290678.759,-41.992,-57.129,213.379,-30.273,0.000
1681290678.763,-33.203,-57.129,210.449,-28.320,0.000
1681290678.767,-28.320,-57.617,206.055,-28.320,0.000
1681290678.771,-37.109,-56.152,211.426,-34.668,0.000
1681290678.775,-38.574,-48.828,212.402,-41.992,0.000
1681290678.779,-29.297,-46.387,204.590,-32.227,0.000
1681290678.783,-24.414,-52.734,203.125,-21.973,0.000
1681290678.787,-22.461,-47.852,206.055,-19.043,0.000
1681290678.791,-30.273,-49.316,202.637,-32.715,0.000
1681290678.795,-31.738,-53.223,204.102,-38.574,0.000
1681290678.798,-27.344,-48.828,205.566,-35.645,0.000
1681290678.802,-32.715,-48.340,203.613,-29.297,0.000
1681290678.806,-41.992,-50.781,199.707,-34.180,0.000
1681290678.810,-51.758,-56.152,197.266,-42.969,0.000
1681290678.814,-55.664,-52.246,195.312,-36.621,0.000
1681290678.818,-54.199,-48.828,191.406,-32.227,0.000
1681290678.822,-52.246,-54.688,188.477,-26.367,0.000
1681290678.826,-43.945,-47.852,187.012,-28.320,0.000
1681290678.830,-43.457,-49.805,182.617,-39.062,0.000
1681290678.834,-44.434,-48.828,181.641,-40.039,0.000
1681290678.838,-40.039,-40.039,179.199,-31.738,0.000
1681290678.841,-35.645,-45.410,171.875,-19.043,0.000
1681290678.845,-40.527,-47.852,169.922,-17.578,0.000
1681290678.849,-46.387,-49.316,163.574,-33.691,0.000
1681290678.853,-38.574,-50.293,160.156,-45.898,0.000
1681290678.857,-40.527,-52.734,161.621,-47.363,0.000
1681290678.861,-42.969,-52.734,161.621,-40.527,0.000
1681290678.865,-39.551,-47.363,157.227,-35.156,0.000
1681290678.869,-43.945,-51.270,147.461,-42.480,0.000
1681290678.873,-48.828,-59.082,145.996,-55.176,0.000
1681290678.877,-47.852,-56.641,147.949,-49.316,0.000
1681290678.880,-36.621,-49.805,147.461,-33.203,0.000
1681290678.884,-27.832,-47.852,145.508,-29.297,0.000
1681290678.888,-38.086,-50.293,145.508,-37.109,0.000
1681290678.892,-43.945,-50.781,143.066,-45.898,0.000
1681290678.896,-39.062,-54.688,137.695,-52.734,0.000
1681290678.900,-39.551,-52.246,143.066,-48.828,0.000
1681290678.904,-41.016,-49.805,143.066,-30.273,0.000
1681290678.908,-34.180,-55.176,139.648,-31.250,0.000
1681290678.912,-30.762,-59.082,139.160,-49.316,0.000
1681290678.916,-29.297,-53.223,143.555,-43.457,0.000
1681290678.920,-32.227,-50.781,148.926,-35.645,0.000
1681290678.923,-34.668,-59.082,143.066,-30.762,0.000
1681290678.927,-36.133,-61.523,137.207,-32.715,0.000
1681290678.931,-41.016,-61.035,134.277,-42.480,0.000
1681290678.935,-44.434,-58.105,131.836,-46.387,0.000
1681290678.939,-42.969,-54.688,135.742,-41.992,0.000
1681290678.943,-35.645,-58.105,135.742,-33.691,0.000
1681290678.947,-29.785,-55.664,127.441,-27.344,0.000
1681290678.951,-32.227,-53.711,127.441,-31.250,0.000
1681290678.955,-35.156,-56.152,135.742,-38.086,0.000
1681290678.959,-32.227,-50.293,143.555,-29.785,0.000
1681290678.963,-27.344,-48.340,140.625,-21.973,0.000
1681290678.966,-28.809,-48.828,129.395,-33.203,0.000
1681290678.970,-41.992,-50.781,125.000,-44.922,0.000
1681290678.974,-41.016,-54.688,129.883,-41.504,0.000
1681290678.978,-27.344,-47.852,129.395,-31.738,0.000
1681290678.982,-29.297,-44.434,137.207,-28.809,0.000
1681290678.986,-33.203,-54.688,153.809,-33.203,0.000
1681290678.990,-38.574,-53.711,157.227,-39.551,0.000
1681290678.994,-38.574,-45.898,160.156,-39.551,0.000
1681290678.998,-34.180,-45.410,160.156,-34.668,0.000
1681290679.002,-35.156,-45.898,154.785,-30.273,0.000
1681290679.005,-23.438,-50.293,150.879,-28.809,0.000
1681290679.009,-24.902,-54.688,146.973,-38.086,0.000
1681290679.013,-36.133,-54.688,140.137,-49.316,0.000
1681290679.017,-34.180,-55.664,135.742,-43.457,0.000
1681290679.021,-33.691,-55.664,127.930,-30.762,0.000
1681290679.025,-28.809,-53.223,131.348,-26.855,0.000
1681290679.029,-27.344,-53.223,137.207,-36.621,0.000
1681290679.033,-37.109,-63.477,132.812,-43.457,0.000
1681290679.037,-41.504,-62.500,130.371,-25.879,0.000
1681290679.041,-37.598,-57.617,124.512,-18.555,0.000
1681290679.045,-29.785,-63.477,115.234,-20.020,0.000
1681290679.048,-32.227,-61.523,104.492,-27.344,0.000
1681290679.052,-41.016,-59.570,102.539,-41.504,0.000
1681290679.056,-41.016,-59.570,107.422,-35.645,0.000
1681290679.060,-35.156,-55.176,100.586,-8.789,0.000
1681290679.064,-25.391,-53.711,92.285,-3.418,0.000
1681290679.068,-20.508,-48.828,96.191,-15.137,0.000
1681290679.072,-26.367,-43.457,95.703,-27.832,0.000
1681290679.076,-33.203,-48.340,83.984,-32.227,0.000
1681290679.080,-29.785,-53.711,70.312,-23.438,0.000
1681290679.084,-37.109,-59.570,70.312,-28.320,0.000
1681290679.088,-44.922,-64.941,64.453,-33.203,0.000
1681290679.091,-39.551,-64.941,60.547,-35.156,0.000
1681290679.095,-45.898,-64.941,64.453,-37.109,0.000
1681290679.099,-43.457,-60.547,64.453,-29.297,0.000
1681290679.103,-36.621,-55.664,62.500,-26.855,0.000
1681290679.107,-39.062,-58.105,63.477,-28.320,0.000
1681290679.111,-42.969,-54.199,59.570,-32.227,0.000
1681290679.115,-40.527,-51.758,74.219,-35.156,0.000
1681290679.119,-35.156,-55.664,118.164,-31.250,0.000
1681290679.123,-35.645,-60.059,165.527,-30.762,0.000
1681290679.127,-35.645,-57.129,232.422,-34.180,0.000
1681290679.130,-41.016,-52.246,283.691,-39.062,0.000
1681290679.134,-46.875,-52.246,304.199,-43.457,0.000
1681290679.138,-48.340,-62.988,328.125,-38.574,0.000
1681290679.142,-43.457,-65.430,348.633,-32.715,0.000
1681290679.146,-32.715,-51.270,357.422,-20.508,0.000
1681290679.150,-43.457,-51.270,344.727,-33.203,0.000
1681290679.154,-57.617,-56.152,324.707,-50.293,0.000
1681290679.158,-62.012,-56.152,317.871,-54.688,0.000
1681290679.162,-60.059,-50.781,322.754,-52.246,0.000
1681290679.166,-73.730,-48.828,320.312,-56.152,0.000
1681290679.170,-89.355,-50.293,301.758,-77.148,0.000
1681290679.173,-89.355,-54.688,283.691,-88.379,0.000
1681290679.177,-95.703,-56.641,280.273,-91.797,0.000
1681290679.181,-103.027,-45.410,282.227,-84.961,0.000
1681290679.185,-111.328,-38.086,281.738,-92.773,0.000
1681290679.189,-111.816,-35.645,293.945,-115.234,0.000
1681290679.193,-138.184,-27.832,292.969,-149.414,0.000
1681290679.197,-165.527,-25.879,273.438,-169.922,0.000
1681290679.201,-156.738,-24.902,272.949,-156.738,0.000
1681290679.205,-166.992,-22.949,276.855,-155.273,0.000
1681290679.209,-184.082,-21.484,282.227,-167.969,0.000
1681290679.212,-182.617,-19.531,284.180,-183.594,0.000
1681290679.216,-185.547,-22.461,282.227,-190.918,0.000
1681290679.220,-177.734,-21.973,284.668,-168.457,0.000
1681290679.224,-172.852,-17.090,271.973,-166.504,0.000
1681290679.228,-185.059,-24.414,246.094,-187.500,0.000
1681290679.232,-180.176,-29.785,237.793,-180.176,0.000
1681290679.236,-179.199,-25.879,235.352,-179.688,0.000
1681290679.240,-171.387,-26.367,215.820,-169.434,0.000
1681290679.244,-151.855,-27.344,203.125,-149.902,0.000
1681290679.248,-150.391,-30.762,193.848,-155.273,0.000
1681290679.252,-145.020,-28.320,175.781,-149.902,0.000
1681290679.255,-137.695,-30.762,167.480,-147.949,0.000
1681290679.259,-120.605,-36.133,166.992,-134.766,0.000
1681290679.263,-92.285,-39.062,145.996,-104.004,0.000
1681290679.267,-90.332,-42.969,133.301,-95.215,0.000
1681290679.271,-93.750,-43.457,145.020,-98.633,0.000
1681290679.275,-79.590,-46.387,151.855,-104.492,0.000
1681290679.279,-63.965,-45.898,153.320,-86.426,0.000
1681290679.283,-61.035,-41.992,155.273,-68.848,0.000
1681290679.287,-59.082,-48.340,149.902,-63.477,0.000
1681290679.291,-52.246,-54.199,147.949,-67.871,0.000
1681290679.295,-40.527,-46.875,147.949,-76.660,0.000
1681290679.298,-28.320,-45.410,188.965,-50.293,0.000
1681290679.302,-20.020,-51.270,227.539,-25.391,0.000
1681290679.306,-10.254,-54.688,208.008,-20.020,0.000
1681290679.310,-21.973,-60.059,199.219,-24.902,0.000
1681290679.314,-24.902,-56.152,191.895,-28.320,0.000
1681290679.318,-3.906,-52.734,183.594,-16.113,0.000
1681290679.322,10.254,-53.711,171.875,7.812,0.000
1681290679.326,17.090,-54.688,162.598,12.207,0.000
1681290679.330,19.531,-55.664,179.688,4.883,0.000
1681290679.334,19.043,-57.617,195.801,3.906,0.000
1681290679.337,21.973,-55.176,198.730,15.137,0.000
1681290679.341,20.020,-53.223,194.824,21.973,0.000
1681290679.345,14.160,-60.547,195.801,20.996,0.000
1681290679.349,22.949,-61.035,196.777,14.648,0.000
1681290679.353,21.973,-62.500,195.801,1.465,0.000
1681290679.357,16.113,-60.547,200.195,4.395,0.000
1681290679.361,20.020,-59.570,198.730,16.113,0.000
1681290679.365,24.902,-63.477,188.965,29.297,0.000
1681290679.369,16.602,-64.453,177.246,23.438,0.000
1681290679.373,9.766,-63.477,172.363,6.348,0.000
1681290679.377,8.301,-56.152,177.734,10.254,0.000
1681290679.380,17.090,-57.129,176.270,15.137,0.000
1681290679.384,19.043,-59.570,165.527,6.836,0.000
1681290679.388,6.836,-63.965,166.992,6.836,0.000
1681290679.392,4.395,-63.477,131.836,5.371,0.000
1681290679.396,5.859,-61.035,69.336,1.465,0.000
1681290679.400,11.230,-62.988,65.918,0.000,0.000
1681290679.404,9.766,-63.477,82.031,7.812,0.000
1681290679.408,0.000,-63.965,94.727,18.066,0.000
1681290679.412,-1.953,-69.336,91.309,3.906,0.000
1681290679.416,-2.930,-74.707,49.316,-7.812,0.000
1681290679.420,10.254,-72.754,27.832,1.465,0.000
1681290679.423,7.324,-65.430,50.781,18.555,0.000
1681290679.427,-1.953,-60.059,63.477,21.484,0.000
1681290679.431,2.441,-62.012,58.105,6.836,0.000
1681290679.435,2.441,-65.918,45.898,-1.953,0.000
1681290679.439,-0.488,-67.871,46.387,4.883,0.000
1681290679.443,-1.953,-67.871,52.246,14.160,0.000
1681290679.447,1.465,-62.012,47.363,17.090,0.000
1681290679.451,-4.395,-71.289,35.645,0.000,0.000
1681290679.455,-4.883,-75.195,24.902,-10.254,0.000
1681290679.459,-6.348,-68.848,12.207,-1.953,0.000
1681290679.462,-8.301,-69.336,6.836,8.301,0.000
1681290679.466,1.953,-63.965,-7.324,12.207,0.000
1681290679.470,10.254,-58.594,-30.762,5.859,0.000
1681290679.474,6.836,-60.059,-30.762,-3.418,0.000
1681290679.478,7.324,-64.453,-21.484,-5.859,0.000
1681290679.482,12.695,-62.012,-21.973,7.812,0.000
1681290679.486,2.930,-58.105,-32.227,11.230,0.000
1681290679.490,-4.883,-54.688,-15.137,4.883,0.000
1681290679.494,0.000,-51.758,31.250,-4.883,0.000
1681290679.498,-0.977,-55.664,57.617,-5.371,0.000
1681290679.502,-8.301,-53.711,73.730,5.859,0.000
1681290679.505,-11.719,-54.199,80.078,6.836,0.000
1681290679.509,5.859,-57.129,84.473,-2.441,0.000
1681290679.513,4.883,-55.664,84.473,-10.742,0.000
1681290679.517,-8.789,-58.105,97.656,-11.230,0.000
1681290679.521,10.742,-68.359,143.555,20.996,0.000
1681290679.525,27.344,-62.988,145.508,41.504,0.000
1681290679.529,-5.859,-41.992,144.043,0.000,0.000
1681290679.533,-39.062,-45.898,175.781,-38.086,0.000
1681290679.537,-27.344,-56.152,265.625,-29.785,0.000
1681290679.541,-26.855,-52.734,409.668,-22.949,0.000
1681290679.545,-34.668,-47.852,509.277,-36.133,0.000
1681290679.548,-24.902,-48.340,557.129,-43.457,0.000
1681290679.552,-33.203,-51.270,505.859,-49.805,0.000
1681290679.556,-35.645,-49.316,416.016,-44.922,0.000
1681290679.560,-25.879,-34.668,389.160,-38.086,0.000
1681290679.564,-19.043,-33.203,448.730,-29.297,0.000
1681290679.568,-26.855,-44.434,499.512,-34.668,0.000
1681290679.572,-33.203,-52.734,625.488,-50.781,0.000
1681290679.576,-24.902,-54.688,861.816,-52.246,0.000
1681290679.580,-16.113,-49.316,979.004,-37.598,0.000
1681290679.584,-11.230,-49.316,967.773,-23.926,0.000
1681290679.587,-15.625,-51.270,971.191,-22.461,0.000
1681290679.591,-22.949,-51.758,973.633,-14.160,0.000
1681290679.595,-38.086,-52.246,972.656,-14.648,0.000
1681290679.599,-39.551,-46.875,972.656,-18.555,0.000
1681290679.603,-21.484,-50.293,968.750,-7.324,0.000
1681290679.607,-36.621,-53.223,978.027,-15.625,0.000
1681290679.611,-40.039,-56.641,923.828,-30.273,0.000
1681290679.615,-25.879,-59.570,799.805,-36.133,0.000
1681290679.619,-30.762,-60.547,708.984,-30.762,0.000
1681290679.623,-25.391,-63.965,644.531,-12.207,0.000
1681290679.627,-24.902,-59.082,583.008,-22.949,0.000
1681290679.630,-32.715,-60.059,525.391,-40.039,0.000
1681290679.634,-32.715,-58.594,504.395,-35.645,0.000
1681290679.638,-33.691,-53.223,505.859,-28.320,0.000
1681290679.642,-30.762,-58.594,494.141,-26.367,0.000
1681290679.646,-23.926,-62.012,473.145,-23.438,0.000
1681290679.650,-24.414,-55.176,454.590,-24.414,0.000
1681290679.654,-34.180,-60.059,437.012,-36.621,0.000
1681290679.658,-44.434,-66.895,421.875,-41.992,0.000
1681290679.662,-34.180,-66.406,410.645,-39.551,0.000
1681290679.666,-20.020,-67.871,395.996,-32.715,0.000
1681290679.670,-23.438,-64.453,378.906,-35.645,0.000
1681290679.673,-38.086,-63.965,365.234,-49.805,0.000
1681290679.677,-40.039,-64.453,357.910,-48.828,0.000
1681290679.681,-31.250,-64.453,354.004,-26.855,0.000
1681290679.685,-34.180,-67.383,333.496,-26.367,0.000
1681290679.689,-32.715,-67.383,334.473,-36.621,0.000
1681290679.693,-33.203,-63.965,291.992,-35.645,0.000
1681290679.697,-34.180,-62.988,156.250,-35.645,0.000
1681290679.701,-26.367,-64.941,98.145,-28.320,0.000
1681290679.705,-20.508,-61.035,103.027,-19.531,0.000
1681290679.709,-25.879,-65.430,98.633,-21.973,0.000
1681290679.712,-31.738,-63.477,102.539,-30.273,0.000
1681290679.716,-38.574,-57.129,160.156,-37.598,0.000
1681290679.720,-34.180,-63.965,230.957,-33.203,0.000
1681290679.724,-27.832,-63.477,228.516,-27.832,0.000
1681290679.728,-35.645,-64.941,239.258,-30.762,0.000
1681290679.732,-31.738,-69.824,362.305,-39.551,0.000
1681290679.736,-25.391,-71.289,440.918,-37.109,0.000
1681290679.740,-37.598,-69.336,448.730,-32.715,0.000
1681290679.744,-45.898,-69.336,464.355,-35.156,0.000
1681290679.748,-28.809,-66.895,472.168,-25.391,0.000
1681290679.752,-24.902,-63.477,479.004,-34.180,0.000
1681290679.755,-22.949,-62.012,499.023,-39.062,0.000
1681290679.759,-19.531,-62.012,519.531,-25.879,0.000
1681290679.763,-21.484,-62.012,529.297,-13.184,0.000
1681290679.767,-16.113,-60.059,522.461,-14.160,0.000
1681290679.771,-27.344,-61.523,508.789,-25.879,0.000
1681290679.775,-49.316,-68.359,509.277,-36.133,0.000
1681290679.779,-42.480,-69.824,524.414,-41.016,0.000
1681290679.783,-28.320,-67.871,536.133,-34.668,0.000
1681290679.787,-38.086,-62.500,533.691,-26.855,0.000
1681290679.791,-41.504,-64.453,535.156,-35.156,0.000
1681290679.794,-31.250,-67.383,544.434,-42.969,0.000
1681290679.798,-31.250,-63.965,548.340,-29.785,0.000
1681290679.802,-35.156,-66.895,550.293,-18.555,0.000
1681290679.806,-40.039,-64.453,555.664,-25.879,0.000
1681290679.810,-43.457,-60.547,565.430,-30.762,0.000
1681290679.814,-47.852,-60.547,574.219,-37.598,0.000
1681290679.818,-50.781,-61.035,618.652,-38.574,0.000
1681290679.822,-34.180,-65.918,749.512,-28.809,0.000
1681290679.826,-32.227,-64.453,800.293,-23.438,0.000
1681290679.830,-42.969,-58.594,755.859,-26.855,0.000
1681290679.834,-41.504,-57.129,730.469,-32.715,0.000
1681290679.837,-39.062,-60.059,724.121,-33.691,0.000
1681290679.841,-37.598,-56.641,718.262,-29.785,0.000
1681290679.845,-36.133,-54.688,698.730,-28.320,0.000
1681290679.849,-38.574,-60.059,687.500,-33.691,0.000
1681290679.853,-45.898,-64.453,674.316,-40.527,0.000
1681290679.857,-51.270,-62.988,681.641,-49.805,0.000
1681290679.861,-45.898,-62.012,702.637,-50.293,0.000
1681290679.865,-52.246,-67.383,692.383,-43.457,0.000
1681290679.869,-52.734,-62.988,673.340,-42.969,0.000
1681290679.873,-42.480,-62.500,635.254,-42.969,0.000
1681290679.877,-44.922,-69.336,559.570,-47.363,0.000
1681290679.880,-54.688,-62.500,494.141,-51.758,0.000
1681290679.884,-46.387,-52.246,451.660,-41.016,0.000
1681290679.888,-41.992,-54.199,422.852,-39.062,0.000
1681290679.892,-47.852,-57.617,416.504,-46.875,0.000
1681290679.896,-37.109,-53.223,420.898,-48.340,0.000
1681290679.900,-39.062,-59.082,398.926,-53.223,0.000
1681290679.904,-46.387,-62.500,385.254,-54.199,0.000
1681290679.908,-48.828,-60.547,389.160,-43.945,0.000
1681290679.912,-54.688,-64.941,391.602,-52.246,0.000
1681290679.916,-50.781,-83.984,416.504,-51.270,0.000
1681290679.919,-36.133,-79.102,399.414,-43.457,0.000
1681290679.923,-51.270,-57.129,264.160,-56.152,0.000
1681290679.927,-71.289,-51.270,229.492,-68.359,0.000
1681290679.931,-68.848,-51.270,314.453,-67.383,0.000
1681290679.935,-62.500,-49.316,384.277,-77.637,0.000
1681290679.939,-74.707,-51.270,488.281,-89.844,0.000
1681290679.943,-63.965,-47.852,616.211,-74.707,0.000
1681290679.947,-51.758,-41.504,713.867,-73.730,0.000
1681290679.951,-48.828,-38.574,790.039,-81.055,0.000
1681290679.955,-60.547,-35.156,858.398,-91.797,0.000
1681290679.959,-80.078,-39.062,915.527,-90.332,0.000
1681290679.962,-54.199,-41.016,945.801,-69.824,0.000
1681290679.966,-38.574,-39.062,949.219,-56.152,0.000
1681290679.970,-45.898,-36.133,920.898,-64.941,0.000
1681290679.974,-56.641,-32.715,855.957,-70.801,0.000
1681290679.978,-51.758,-37.598,781.738,-60.547,0.000
1681290679.982,-44.434,-43.945,712.402,-61.035,0.000
1681290679.986,-51.270,-42.480,573.730,-60.059,0.000
1681290679.990,-47.363,-49.805,427.246,-57.129,0.000
1681290679.994,-47.363,-54.688,346.680,-66.895,0.000
1681290679.998,-49.316,-55.176,309.082,-74.219,0.000
1681290680.002,-46.875,-59.570,333.984,-66.406,0.000
1681290680.005,-49.316,-59.570,293.457,-53.711,0.000
1681290680.009,-54.688,-63.965,167.969,-60.547,0.000
1681290680.013,-60.547,-65.918,86.426,-70.801,0.000
1681290680.017,-49.316,-61.035,63.965,-66.895,0.000
1681290680.021,-40.527,-59.570,67.871,-52.246,0.000
1681290680.025,-41.504,-61.035,75.684,-44.434,0.000
1681290680.029,-38.574,-62.012,83.008,-48.340,0.000
1681290680.033,-41.504,-62.012,91.309,-59.082,0.000
1681290680.037,-49.316,-59.082,106.445,-67.871,0.000
1681290680.041,-39.062,-56.641,113.770,-49.805,0.000
1681290680.044,-30.762,-54.688,117.676,-34.668,0.000
1681290680.048,-36.133,-53.223,123.535,-41.504,0.000
1681290680.052,-39.062,-57.129,129.883,-45.898,0.000
1681290680.056,-39.062,-56.641,157.227,-51.758,0.000
1681290680.060,-45.410,-55.176,124.512,-45.898,0.000
1681290680.064,-38.574,-56.641,68.848,-34.668,0.000
1681290680.068,-28.320,-62.500,93.750,-35.645,0.000
1681290680.072,-47.363,-64.941,93.750,-55.176,0.000
1681290680.076,-49.805,-65.918,68.848,-56.641,0.000
1681290680.080,-44.922,-63.965,50.293,-48.828,0.000
1681290680.084,-45.410,-67.383,29.785,-45.898,0.000
1681290680.087,-43.457,-68.848,23.926,-38.086,0.000
1681290680.091,-58.594,-63.965,18.555,-51.270,0.000
1681290680.095,-60.547,-62.500,0.977,-54.688,0.000
1681290680.099,-46.387,-66.895,-41.992,-45.410,0.000
1681290680.103,-43.945,-70.312,-65.918,-46.875,0.000
1681290680.107,-41.992,-66.406,-57.129,-44.922,0.000
1681290680.111,-40.039,-62.988,-51.270,-40.039,0.000
1681290680.115,-43.457,-58.594,-41.992,-50.781,0.000
1681290680.119,-47.852,-62.988,-34.668,-52.734,0.000
1681290680.123,-43.945,-68.848,-34.668,-39.551,0.000
1681290680.127,-44.922,-71.777,-37.109,-39.062,0.000
1681290680.130,-48.340,-69.336,-36.621,-33.203,0.000
1681290680.134,-52.734,-68.848,-33.203,-41.504,0.000
1681290680.138,-57.617,-77.148,-31.738,-54.199,0.000
1681290680.142,-50.781,-75.195,-27.344,-47.363,0.000
1681290680.146,-48.340,-68.848,-18.066,-43.457,0.000
1681290680.150,-50.781,-73.242,-16.113,-50.293,0.000
1681290680.154,-52.734,-70.801,-14.160,-63.477,0.000
1681290680.158,-57.617,-64.453,-4.395,-68.359,0.000
1681290680.162,-66.406,-67.871,8.789,-61.523,0.000
1681290680.166,-63.965,-71.289,12.695,-53.711,0.000
1681290680.169,-63.477,-72.754,10.254,-59.570,0.000
1681290680.173,-62.012,-71.289,19.531,-65.918,0.000
1681290680.177,-54.199,-65.918,15.137,-63.477,0.000
1681290680.181,-53.223,-60.059,-6.836,-53.223,0.000
1681290680.185,-55.176,-61.523,-22.461,-41.992,0.000
1681290680.189,-55.664,-65.430,-26.855,-43.945,0.000
1681290680.193,-56.152,-71.289,-22.949,-54.199,0.000
1681290680.197,-57.617,-69.336,-16.113,-53.711,0.000
1681290680.201,-45.898,-60.059,-0.977,-42.969,0.000
1681290680.205,-43.457,-58.594,8.301,-41.504,0.000
1681290680.209,-48.340,-60.547,4.883,-52.734,0.000
1681290680.212,-43.457,-62.500,23.926,-60.059,0.000
1681290680.216,-43.457,-60.547,41.504,-56.152,0.000
1681290680.220,-44.434,-59.082,41.016,-51.758,0.000
1681290680.224,-38.086,-59.570,35.645,-37.598,0.000
1681290680.228,-29.785,-58.105,35.645,-26.367,0.000
1681290680.232,-30.762,-62.500,33.691,-41.016,0.000
1681290680.236,-35.156,-62.012,14.648,-45.898,0.000
1681290680.240,-36.621,-53.711,2.930,-38.086,0.000
1681290680.244,-34.180,-53.711,-14.160,-33.691,0.000
1681290680.248,-35.156,-56.641,-38.574,-36.133,0.000
1681290680.252,-38.086,-52.246,-37.598,-36.133,0.000
1681290680.255,-34.180,-57.617,-42.969,-44.922,0.000
1681290680.259,-20.996,-59.570,-45.410,-24.902,0.000
1681290680.263,-20.020,-46.875,-34.668,-11.719,0.000
1681290680.267,-30.273,-47.852,-27.832,-29.297,0.000
1681290680.271,-38.574,-52.246,-24.902,-36.133,0.000
1681290680.275,-43.457,-48.828,-21.973,-51.270,0.000
1681290680.279,-44.434,-52.734,-12.207,-54.199,0.000
1681290680.283,-43.945,-56.152,3.906,-46.875,0.000
1681290680.287,-42.969,-53.711,13.184,-47.852,0.000
1681290680.291,-42.480,-51.270,35.156,-47.363,0.000
1681290680.294,-31.250,-46.875,79.102,-48.828,0.000
1681290680.298,-39.062,-46.875,88.379,-55.664,0.000
1681290680.302,-43.945,-51.270,82.031,-43.457,0.000
1681290680.306,-37.598,-54.688,84.473,-35.645,0.000
1681290680.310,-42.969,-57.617,84.473,-48.828,0.000
1681290680.314,-38.574,-59.570,88.379,-52.246,0.000
1681290680.318,-37.598,-60.547,93.262,-49.316,0.000
1681290680.322,-33.691,-56.641,92.773,-41.016,0.000
1681290680.326,-30.273,-55.176,100.098,-28.809,0.000
1681290680.330,-39.062,-59.082,106.445,-31.738,0.000
1681290680.334,-49.316,-59.570,105.469,-43.457,0.000
1681290680.337,-47.852,-57.129,115.723,-43.945,0.000
1681290680.341,-34.668,-62.500,121.094,-35.156,0.000
1681290680.345,-25.879,-60.059,123.047,-20.020,0.000
1681290680.349,-32.715,-54.688,125.000,-25.391,0.000
1681290680.353,-33.203,-57.129,150.879,-43.945,0.000
1681290680.357,-38.086,-62.500,168.457,-48.828,0.000
1681290680.361,-48.340,-64.453,154.297,-44.434,0.000
1681290680.365,-41.016,-59.082,155.273,-30.273,0.000
1681290680.369,-32.715,-59.082,156.738,-26.367,0.000
1681290680.373,-34.180,-64.453,156.738,-41.016,0.000
1681290680.377,-38.086,-61.523,157.227,-45.410,0.000
1681290680.380,-35.156,-62.500,149.902,-34.180,0.000
1681290680.384,-35.156,-58.105,141.602,-26.855,0.000
1681290680.388,-29.297,-52.246,153.809,-15.625,0.000
1681290680.392,-22.949,-56.641,158.203,-15.625,0.000
1681290680.396,-28.320,-58.594,149.414,-27.344,0.000
1681290680.400,-34.180,-59.570,147.949,-21.484,0.000
1681290680.404,-25.391,-60.059,145.508,-21.484,0.000
1681290680.408,-26.855,-63.965,143.555,-34.668,0.000
1681290680.412,-26.367,-63.965,148.926,-38.574,0.000
1681290680.416,-28.320,-61.035,147.461,-39.062,0.000
1681290680.419,-33.203,-68.359,140.625,-34.668,0.000
1681290680.423,-28.320,-70.312,135.254,-49.316,0.000
1681290680.427,-19.531,-68.359,131.836,-42.969,0.000
1681290680.431,-16.113,-72.266,134.277,-33.203,0.000
1681290680.435,-14.648,-70.801,133.789,-42.480,0.000
1681290680.439,-10.742,-66.406,133.789,-33.691,0.000
1681290680.443,-13.184,-65.918,134.766,-20.508,0.000
1681290680.447,-14.160,-64.941,137.695,-11.719,0.000
1681290680.451,-16.602,-67.871,137.695,-16.602,0.000
1681290680.455,-28.809,-74.219,139.648,-27.344,0.000
1681290680.459,-38.086,-70.801,141.602,-26.855,0.000
1681290680.462,-28.809,-62.500,144.043,-18.066,0.000
1681290680.466,-28.320,-64.453,140.625,-10.742,0.000
1681290680.470,-36.133,-65.430,129.883,-27.344,0.000
1681290680.474,-30.762,-57.617,131.836,-40.527,0.000
1681290680.478,-27.344,-49.805,133.301,-31.250,0.000
1681290680.482,-29.785,-49.805,131.836,-22.949,0.000
1681290680.486,-22.461,-53.223,130.371,-14.648,0.000
1681290680.490,-16.602,-49.316,129.883,-16.113,0.000
1681290680.494,-25.391,-53.711,126.953,-35.156,0.000
1681290680.498,-27.344,-62.012,117.676,-41.504,0.000
1681290680.501,-29.297,-57.617,116.211,-28.320,0.000
1681290680.505,-30.273,-61.035,112.305,-16.602,0.000
1681290680.509,-14.648,-63.477,111.816,-14.648,0.000
1681290680.513,-17.090,-56.641,109.863,-31.250,0.000
1681290680.517,-28.320,-51.270,107.910,-35.645,0.000
1681290680.521,-18.555,-50.781,107.422,-28.320,0.000
1681290680.525,-12.207,-48.828,98.633,-16.113,0.000
1681290680.529,-21.484,-51.758,98.633,-24.414,0.000
1681290680.533,-27.832,-61.035,99.609,-40.527,0.000
1681290680.537,-30.762,-62.500,93.750,-34.668,0.000
1681290680.541,-22.461,-60.547,97.168,-30.762,0.000
1681290680.544,-15.137,-53.223,95.215,-19.043,0.000
1681290680.548,-18.066,-50.781,91.309,-6.348,0.000
1681290680.552,-24.414,-52.246,91.797,-18.066,0.000
1681290680.556,-29.785,-51.758,77.637,-33.691,0.000
1681290680.560,-23.926,-50.293,62.500,-31.738,0.000
1681290680.564,-22.461,-49.316,82.520,-19.043,0.000
1681290680.568,-19.531,-49.316,108.398,-13.672,0.000
1681290680.572,-26.367,-47.363,123.047,-28.809,0.000
1681290680.576,-37.598,-49.316,134.766,-45.410,0.000
1681290680.580,-32.227,-39.551,146.484,-35.645,0.000
1681290680.584,-23.438,-36.133,154.297,-24.414,0.000
1681290680.587,-22.461,-49.805,138.184,-28.809,0.000
1681290680.591,-28.809,-51.758,120.605,-39.062,0.000
1681290680.595,-21.973,-47.363,124.512,-32.715,0.000
1681290680.599,-19.043,-44.434,134.766,-23.438,0.000
1681290680.603,-24.414,-45.410,127.441,-25.879,0.000
1681290680.607,-24.902,-38.574,125.977,-17.090,0.000
1681290680.611,-20.996,-33.691,132.324,-18.066,0.000
1681290680.615,-22.461,-39.062,122.070,-29.297,0.000
1681290680.619,-21.484,-33.203,122.070,-24.414,0.000
1681290680.623,-17.578,-39.551,119.141,-14.160,0.000
1681290680.626,-12.695,-36.621,114.258,-12.695,0.000
1681290680.630,-11.719,-23.926,109.375,-17.090,0.000
1681290680.634,-21.484,-35.645,99.121,-35.645,0.000
1681290680.638,-37.109,-46.387,95.703,-55.664,0.000
1681290680.642,-41.016,-18.066,102.051,-53.711,0.000
1681290680.646,-45.410,-13.672,102.539,-55.176,0.000
1681290680.650,-62.988,-27.344,112.305,-70.801,0.000
1681290680.654,-81.055,-9.277,108.887,-95.703,0.000
1681290680.658,-105.469,-0.977,105.957,-123.535,0.000
1681290680.662,-122.559,3.418,116.211,-130.371,0.000
1681290680.666,-139.648,2.930,117.188,-142.090,0.000
1681290680.669,-161.133,5.859,109.863,-166.992,0.000
1681290680.673,-178.223,12.695,106.934,-187.988,0.000
1681290680.677,-172.363,12.695,110.352,-179.199,0.000
1681290680.681,-171.875,12.207,116.699,-177.246,0.000
1681290680.685,-178.223,13.672,114.746,-177.734,0.000
1681290680.689,-165.527,13.672,112.305,-165.039,0.000
1681290680.693,-167.480,6.836,110.352,-172.363,0.000
1681290680.697,-165.039,5.859,98.633,-177.246,0.000
1681290680.701,-152.832,0.488,94.727,-160.156,0.000
1681290680.705,-157.715,-2.930,96.191,-150.391,0.000
1681290680.709,-154.297,-7.324,87.891,-145.996,0.000
1681290680.712,-145.508,-12.207,81.543,-143.555,0.000
1681290680.716,-143.555,-17.090,82.520,-145.508,0.000
1681290680.720,-132.812,-21.973,82.031,-132.812,0.000
1681290680.724,-112.793,-14.160,75.195,-106.934,0.000
1681290680.728,-98.145,-9.277,69.824,-101.562,0.000
1681290680.732,-99.121,-16.113,69.336,-112.793,0.000
1681290680.736,-91.797,-18.066,62.012,-101.074,0.000
1681290680.740,-76.660,-15.137,53.711,-83.984,0.000
1681290680.744,-67.383,-19.043,42.480,-66.895,0.000
1681290680.748,-55.664,-21.484,32.227,-52.246,0.000
1681290680.751,-53.711,-22.461,25.879,-55.664,0.000
1681290680.755,-53.223,-34.180,16.113,-55.176,0.000
1681290680.759,-32.715,-46.875,9.766,-30.762,0.000
1681290680.763,-17.090,-45.898,5.371,-20.508,0.000
1681290680.767,-17.090,-41.016,0.000,-17.578,0.000
1681290680.771,-4.883,-40.527,-2.441,0.977,0.000
1681290680.775,5.859,-41.992,0.000,4.395,0.000
1681290680.779,13.672,-45.410,4.883,5.371,0.000
1681290680.783,24.902,-42.969,0.488,19.043,0.000
1681290680.787,21.973,-41.016,0.000,29.297,0.000
1681290680.791,19.531,-45.410,-1.465,22.949,0.000
1681290680.794,21.484,-42.480,0.977,17.578,0.000
1681290680.798,12.695,-43.945,2.441,20.996,0.000
1681290680.802,21.484,-52.734,-2.930,31.738,0.000
1681290680.806,37.109,-45.898,-7.812,41.992,0.000
1681290680.810,34.180,-38.086,-10.742,41.504,0.000
1681290680.814,28.320,-41.992,-12.695,27.344,0.000
1681290680.818,29.297,-43.457,-12.695,27.832,0.000
1681290680.822,35.645,-45.410,-15.625,41.504,0.000
1681290680.826,38.574,-49.805,-23.926,47.852,0.000
1681290680.830,38.574,-50.781,-15.137,44.434,0.000
1681290680.834,42.480,-50.293,-5.859,41.992,0.000
1681290680.837,40.039,-45.898,-11.719,41.992,0.000
1681290680.841,34.180,-46.387,-12.695,38.574,0.000
1681290680.845,36.133,-51.270,-15.137,43.945,0.000
1681290680.849,41.992,-52.246,-20.020,45.898,0.000
1681290680.853,42.480,-53.223,-20.508,45.898,0.000
1681290680.857,33.691,-52.734,-21.484,41.992,0.000
1681290680.861,34.668,-48.828,-19.043,46.387,0.000
1681290680.865,42.480,-51.270,-17.578,57.129,0.000
1681290680.869,46.387,-50.293,-20.508,55.176,0.000
1681290680.873,40.527,-47.363,-17.090,56.152,0.000
1681290680.876,32.715,-42.480,-17.578,47.363,0.000
1681290680.880,35.156,-42.480,-24.902,43.457,0.000
1681290680.884,39.062,-45.410,-26.855,54.688,0.000
1681290680.888,38.574,-42.969,-24.414,52.246,0.000
1681290680.892,34.668,-46.875,-19.531,40.039,0.000
1681290680.896,29.297,-47.363,-17.090,31.738,0.000
1681290680.900,26.855,-46.387,-19.043,36.621,0.000
1681290680.904,26.855,-44.434,-22.461,49.805,0.000
1681290680.908,30.762,-43.457,-24.902,52.734,0.000
1681290680.912,25.391,-47.363,-28.809,40.039,0.000
1681290680.916,9.277,-46.387,-32.227,25.391,0.000
1681290680.919,8.301,-41.992,-22.461,26.367,0.000
1681290680.923,21.973,-41.992,-17.578,38.574,0.000
1681290680.927,10.742,-41.504,-17.578,35.645,0.000
1681290680.931,0.488,-40.527,-19.043,18.555,0.000
1681290680.935,9.277,-46.387,-20.996,4.395,0.000
1681290680.939,8.301,-47.852,-17.578,1.953,0.000
1681290680.943,9.277,-43.457,-15.137,18.066,0.000
1681290680.947,13.184,-42.480,-9.766,25.879,0.000
1681290680.951,17.090,-41.016,-4.395,22.949,0.000
1681290680.955,12.207,-41.504,-5.371,20.996,0.000
1681290680.959,2.441,-45.410,-7.812,14.160,0.000
1681290680.962,8.789,-38.086,-1.953,17.578,0.000
1681290680.966,15.137,-37.109,2.930,26.367,0.000
1681290680.970,8.789,-38.086,3.418,21.973,0.000
1681290680.974,-1.465,-32.227,0.977,13.184,0.000
1681290680.978,-1.465,-31.738,-3.418,10.254,0.000
1681290680.982,5.859,-36.621,-7.812,16.602,0.000
1681290680.986,9.277,-32.227,-7.812,26.855,0.000
1681290680.990,7.324,-30.273,-9.766,17.090,0.000
1681290680.994,3.906,-34.668,-10.742,2.930,0.000
1681290680.998,-6.348,-34.180,-4.395,0.000,0.000
1681290681.001,-12.695,-33.203,-1.953,-0.977,0.000
1681290681.005,-9.277,-36.621,-0.488,0.488,0.000
1681290681.009,-6.836,-39.062,-2.441,-5.859,0.000
1681290681.013,-7.324,-33.203,-2.930,-14.160,0.000
1681290681.017,-9.766,-31.738,0.488,-11.230,0.000
1681290681.021,-11.230,-33.203,-2.441,-7.324,0.000
1681290681.025,-9.766,-32.715,6.836,0.977,0.000
1681290681.029,-3.418,-37.598,11.719,-0.977,0.000
1681290681.033,-7.324,-38.574,5.859,-18.066,0.000
1681290681.037,-10.742,-42.969,2.441,-20.508,0.000
1681290681.041,-15.137,-41.504,0.000,-13.672,0.000
1681290681.044,-13.672,-31.250,5.859,-3.906,0.000
1681290681.048,-17.578,-31.738,10.742,-1.953,0.000
1681290681.052,-20.508,-37.109,7.812,-11.719,0.000
1681290681.056,-23.438,-39.551,6.348,-20.020,0.000
1681290681.060,-25.879,-39.551,5.859,-19.531,0.000
1681290681.064,-22.949,-36.621,4.883,-9.766,0.000
1681290681.068,-22.949,-37.109,-3.906,-12.207,0.000
1681290681.072,-26.855,-41.992,-9.766,-11.719,0.000
1681290681.076,-28.809,-44.434,-2.930,-7.812,0.000
1681290681.080,-23.438,-38.574,0.000,-7.812,0.000
1681290681.083,-20.508,-34.180,-1.465,-8.301,0.000
1681290681.087,-19.043,-34.668,-0.488,-10.254,0.000
1681290681.091,-22.949,-38.574,-0.488,-16.602,0.000
1681290681.095,-24.902,-41.992,-8.301,-31.738,0.000
1681290681.099,-27.344,-34.668,-1.953,-28.809,0.000
1681290681.103,-25.879,-34.668,3.418,-19.531,0.000
1681290681.107,-19.531,-42.480,1.953,-17.090,0.000
1681290681.111,-23.926,-46.875,0.977,-26.367,0.000
1681290681.115,-31.250,-42.480,-7.812,-37.598,0.000
1681290681.119,-29.785,-43.945,-7.324,-26.367,0.000
1681290681.123,-28.809,-42.969,0.000,-12.695,0.000
1681290681.126,-28.809,-34.180,0.977,-10.742,0.000
1681290681.130,-23.926,-34.668,2.930,-17.090,0.000
1681290681.134,-28.809,-38.086,0.977,-30.762,0.000
1681290681.138,-28.320,-41.992,-4.883,-29.785,0.000
1681290681.142,-27.344,-41.504,-0.977,-18.066,0.000
1681290681.146,-29.785,-41.504,-17.090,-21.484,0.000
1681290681.150,-27.832,-41.504,-65.918,-25.879,0.000
1681290681.154,-29.785,-34.668,-88.379,-28.809,0.000
1681290681.158,-27.832,-35.645,-86.426,-25.879,0.000
1681290681.162,-17.578,-38.086,-87.402,-13.672,0.000
1681290681.166,-11.719,-30.762,-71.289,-4.883,0.000
1681290681.169,-24.414,-28.809,-62.500,-10.742,0.000
1681290681.173,-28.809,-37.109,-63.965,-15.625,0.000
1681290681.177,-18.555,-41.016,-55.664,-12.695,0.000
1681290681.181,-19.531,-38.574,-49.805,-7.812,0.000
1681290681.185,-19.531,-35.156,-45.410,-2.930,0.000
1681290681.189,-20.020,-35.645,-36.133,0.488,0.000
1681290681.193,-23.438,-38.086,-28.809,-8.789,0.000
1681290681.197,-20.996,-36.133,-27.832,-19.531,0.000
1681290681.201,-21.484,-39.062,-29.785,-18.555,0.000
1681290681.205,-22.461,-41.504,-29.297,-9.277,0.000
1681290681.208,-26.367,-37.109,-28.320,-1.465,0.000
1681290681.212,-39.551,-41.992,-28.809,-10.742,0.000
1681290681.216,-43.945,-48.340,-24.902,-28.809,0.000
1681290681.220,-39.551,-38.574,-19.531,-23.926,0.000
1681290681.224,-26.367,-30.762,-15.625,-6.836,0.000
1681290681.228,-20.508,-32.227,-10.254,-3.418,0.000
1681290681.232,-24.902,-35.156,-4.395,-5.371,0.000
1681290681.236,-23.926,-40.039,-3.906,-9.766,0.000
1681290681.240,-19.043,-41.016,-3.906,-13.184,0.000
1681290681.244,-16.113,-32.227,-0.488,-9.766,0.000
1681290681.248,-12.207,-28.320,-10.254,-11.230,0.000
1681290681.251,-20.020,-33.691,-16.113,-22.949,0.000
1681290681.255,-24.414,-32.227,-12.207,-20.996,0.000
1681290681.259,-14.160,-25.879,-6.348,-14.648,0.000
1681290681.263,-18.555,-27.832,-4.883,-16.113,0.000
1681290681.267,-21.484,-35.645,-6.836,-17.090,0.000
1681290681.271,-24.414,-37.598,-9.277,-25.879,0.000
1681290681.275,-29.785,-36.133,-6.348,-42.480,0.000
1681290681.279,-26.367,-32.715,0.488,-41.016,0.000
1681290681.283,-20.508,-33.691,0.488,-22.949,0.000
1681290681.287,-19.043,-29.297,3.418,-3.418,0.000
1681290681.291,-24.414,-27.832,3.906,-4.883,0.000
1681290681.294,-25.391,-33.203,8.789,-21.484,0.000
1681290681.298,-28.320,-33.691,10.254,-19.531,0.000
1681290681.302,-24.414,-36.133,4.883,-5.859,0.000
1681290681.306,-17.090,-36.621,3.906,-6.348,0.000
1681290681.310,-24.414,-41.504,3.418,-18.066,0.000
1681290681.314,-32.227,-42.480,8.789,-25.391,0.000
1681290681.318,-28.320,-40.039,9.277,-20.508,0.000
1681290681.322,-26.855,-41.016,6.836,-9.766,0.000
1681290681.326,-28.320,-38.086,9.766,-6.348,0.000
1681290681.330,-28.809,-41.016,13.184,-12.207,0.000
1681290681.333,-33.203,-44.922,13.184,-24.414,0.000
1681290681.337,-31.738,-37.598,20.020,-22.461,0.000
1681290681.341,-24.902,-31.250,24.414,-9.766,0.000
1681290681.345,-18.555,-34.180,18.555,-8.301,0.000
1681290681.349,-21.973,-38.574,16.113,-11.719,0.000
1681290681.353,-23.438,-38.574,9.277,-15.625,0.000
1681290681.357,-19.043,-36.133,6.348,-24.414,0.000
1681290681.361,-25.879,-36.621,9.277,-28.320,0.000
1681290681.365,-20.020,-36.621,32.715,-6.836,0.000
1681290681.369,-17.578,-36.133,54.688,-2.441,0.000
1681290681.373,-19.043,-41.992,77.637,-15.137,0.000
1681290681.376,-21.973,-41.992,179.199,-22.949,0.000
1681290681.380,-30.273,-38.086,272.461,-26.855,0.000
1681290681.384,-22.461,-42.480,295.410,-19.043,0.000
1681290681.388,-17.090,-48.828,264.160,-16.113,0.000
1681290681.392,-20.996,-42.969,233.887,-9.766,0.000
1681290681.396,-24.902,-42.480,210.449,-10.742,0.000
1681290681.400,-22.461,-44.434,190.430,-13.672,0.000
1681290681.404,-18.066,-38.574,176.270,-14.160,0.000
1681290681.408,-16.113,-50.781,156.738,-9.766,0.000
1681290681.412,-15.625,-56.641,143.066,-11.230,0.000
1681290681.416,-30.762,-49.316,130.859,-24.414,0.000
1681290681.419,-34.180,-47.852,123.535,-14.648,0.000
1681290681.423,-21.484,-46.875,116.211,-4.395,0.000
1681290681.427,-16.113,-45.410,106.934,-5.371,0.000
1681290681.431,-17.578,-42.969,104.492,-6.348,0.000
1681290681.435,-22.949,-40.039,100.098,-16.113,0.000
1681290681.439,-25.879,-41.992,97.656,-19.043,0.000
1681290681.443,-20.996,-48.828,95.215,-10.254,0.000
1681290681.447,-11.230,-49.316,87.891,-3.906,0.000
1681290681.451,-17.090,-42.969,74.707,-15.137,0.000
1681290681.455,-27.832,-48.828,66.895,-31.250,0.000
1681290681.458,-26.855,-58.105,61.523,-42.480,0.000
1681290681.462,-16.113,-51.758,63.477,-29.785,0.000
1681290681.466,-4.883,-45.898,68.359,-13.184,0.000
1681290681.470,-15.137,-41.016,64.453,-19.531,0.000
1681290681.474,-18.066,-40.527,62.500,-19.531,0.000
1681290681.478,-8.301,-43.457,64.453,-17.090,0.000
1681290681.482,-12.207,-44.434,61.523,-12.695,0.000
1681290681.486,-16.602,-40.527,59.570,-0.977,0.000
1681290681.490,-25.879,-40.039,58.594,-5.371,0.000
1681290681.494,-29.785,-47.363,49.805,-20.996,0.000
1681290681.498,-29.785,-55.176,46.387,-25.879,0.000
1681290681.501,-31.250,-54.199,45.898,-25.391,0.000
1681290681.505,-23.438,-54.199,43.945,-14.648,0.000
1681290681.509,-27.344,-53.223,44.922,-9.277,0.000
1681290681.513,-33.203,-43.945,45.898,-12.207,0.000
1681290681.517,-34.668,-46.387,36.133,-22.949,0.000
1681290681.521,-28.320,-51.270,34.180,-26.367,0.000
1681290681.525,-20.996,-53.711,38.086,-16.602,0.000
1681290681.529,-24.414,-56.641,37.109,-21.484,0.000
1681290681.533,-27.832,-52.246,38.574,-25.879,0.000
1681290681.537,-29.785,-50.293,34.668,-28.320,0.000
1681290681.541,-26.367,-47.852,39.062,-22.949,0.000
1681290681.544,-31.250,-47.852,46.875,-22.949,0.000
1681290681.548,-36.133,-51.270,43.945,-23.926,0.000
1681290681.552,-30.273,-50.293,46.387,-26.367,0.000
1681290681.556,-26.855,-52.734,46.875,-35.156,0.000
1681290681.560,-28.809,-55.664,35.156,-27.832,0.000
1681290681.564,-29.785,-47.852,34.180,-20.508,0.000
1681290681.568,-26.855,-42.480,32.715,-19.531,0.000
1681290681.572,-28.320,-46.387,32.227,-20.508,0.000
1681290681.576,-36.133,-52.246,44.434,-27.832,0.000
1681290681.580,-37.598,-56.641,47.363,-30.273,0.000
1681290681.583,-31.250,-55.664,44.434,-20.020,0.000
1681290681.587,-31.250,-59.082,39.062,-15.625,0.000
1681290681.591,-30.273,-62.012,36.133,-20.020,0.000
1681290681.595,-20.020,-56.641,36.133,-20.508,0.000
1681290681.599,-17.578,-54.199,37.598,-15.625,0.000
1681290681.603,-16.113,-48.828,39.551,-9.277,0.000
1681290681.607,-9.277,-43.945,37.109,-10.254,0.000
1681290681.611,-11.719,-46.387,33.691,-15.137,0.000
1681290681.615,-24.414,-47.363,32.715,-36.621,0.000
1681290681.619,-21.973,-50.293,31.738,-37.598,0.000
1681290681.623,-25.879,-53.711,28.320,-17.578,0.000
1681290681.626,-29.785,-53.223,25.391,-14.160,0.000
1681290681.630,-23.438,-56.641,25.879,-14.160,0.000
1681290681.634,-32.715,-57.617,26.367,-20.996,0.000
1681290681.638,-24.414,-56.152,8.301,-23.438,0.000
1681290681.642,-16.602,-53.223,-83.008,-18.066,0.000
1681290681.646,-20.020,-53.223,-156.738,-18.066,0.000
1681290681.650,-19.531,-54.199,-168.945,-29.297,0.000
1681290681.654,-30.273,-54.199,-190.918,-29.785,0.000
1681290681.658,-18.066,-58.594,-200.195,-2.930,0.000
1681290681.662,-17.578,-42.480,-188.965,-7.812,0.000
1681290681.666,-41.992,-37.109,-178.223,-28.320,0.000
1681290681.669,-41.016,-48.340,-172.363,-25.391,0.000
1681290681.673,-22.949,-50.781,-167.969,-28.809,0.000
1681290681.677,-26.855,-51.270,-164.062,-38.574,0.000
1681290681.681,-29.785,-50.781,-160.156,-25.391,0.000
1681290681.685,-25.391,-48.340,-157.227,-11.719,0.000
1681290681.689,-29.785,-47.852,-145.020,-21.973,0.000
1681290681.693,-23.926,-43.945,-140.137,-31.738,0.000
1681290681.697,-20.020,-44.922,-132.812,-31.250,0.000
1681290681.701,-21.973,-45.898,-118.164,-27.344,0.000
1681290681.705,-18.555,-47.852,-108.887,-18.555,0.000
1681290681.708,-21.484,-48.828,-99.121,-17.090,0.000
1681290681.712,-31.250,-45.410,-85.938,-27.832,0.000
1681290681.716,-24.414,-48.340,-76.172,-30.273,0.000
1681290681.720,-16.113,-45.898,-68.359,-21.973,0.000
1681290681.724,-20.996,-39.062,-58.105,-13.184,0.000
1681290681.728,-20.996,-37.109,-45.898,-8.301,0.000
1681290681.732,-34.180,-41.504,-57.129,-18.066,0.000
1681290681.736,-35.156,-45.898,-96.191,-25.391,0.000
1681290681.740,-20.020,-49.316,-111.328,-17.578,0.000
1681290681.744,-31.250,-49.316,-105.469,-11.719,0.000
1681290681.748,-29.785,-42.969,-102.051,-7.812,0.000
1681290681.751,-21.973,-46.387,-97.656,-13.184,0.000
1681290681.755,-28.320,-59.570,-85.938,-28.809,0.000
1681290681.759,-31.250,-61.523,-89.355,-32.227,0.000
1681290681.763,-35.156,-50.293,-86.426,-21.973,0.000
1681290681.767,-38.086,-48.828,-59.570,-18.555,0.000
1681290681.771,-37.109,-48.340,-49.805,-18.555,0.000
1681290681.775,-28.320,-40.039,-40.039,-19.043,0.000
1681290681.779,-27.344,-44.922,-30.762,-19.531,0.000
1681290681.783,-28.320,-52.246,-26.367,-15.625,0.000
1681290681.787,-18.066,-44.922,-15.137,-8.301,0.000
1681290681.790,-23.438,-41.992,-20.020,-2.930,0.000
1681290681.794,-29.785,-37.598,-20.020,-14.648,0.000
1681290681.798,-25.391,-34.180,0.488,-17.578,0.000
1681290681.802,-25.391,-48.340,9.766,-12.207,0.000
1681290681.806,-31.250,-55.664,4.395,-19.043,0.000
1681290681.810,-39.551,-54.688,6.836,-25.391,0.000
1681290681.814,-44.434,-55.176,9.766,-33.203,0.000
1681290681.818,-51.270,-62.500,11.230,-41.016,0.000
1681290681.822,-40.039,-58.594,19.043,-29.785,0.000
1681290681.826,-20.996,-44.434,22.949,-13.672,0.000
1681290681.830,-23.438,-51.758,25.391,-17.090,0.000
1681290681.833,-27.344,-51.758,24.414,-30.273,0.000
1681290681.837,-31.250,-50.781,26.367,-40.039,0.000
1681290681.841,-30.762,-53.223,32.715,-30.762,0.000
1681290681.845,-32.227,-56.152,34.180,-30.762,0.000
1681290681.849,-35.645,-61.035,32.715,-37.109,0.000
1681290681.853,-36.621,-59.082,33.203,-34.668,0.000
1681290681.857,-42.480,-62.988,31.250,-44.922,0.000
1681290681.861,-44.434,-59.082,32.715,-51.758,0.000
1681290681.865,-40.039,-56.152,37.109,-37.109,0.000
1681290681.869,-33.203,-60.059,28.809,-25.879,0.000
1681290681.873,-31.738,-55.176,33.691,-31.250,0.000
1681290681.876,-35.156,-47.363,43.945,-32.227,0.000
1681290681.880,-35.645,-44.434,43.945,-32.715,0.000
1681290681.884,-32.715,-49.316,47.363,-27.344,0.000
1681290681.888,-38.574,-50.781,46.875,-20.508,0.000
1681290681.892,-36.133,-46.875,53.711,-23.438,0.000
1681290681.896,-30.273,-42.969,58.594,-36.133,0.000
1681290681.900,-26.855,-43.945,56.152,-30.273,0.000
1681290681.904,-14.648,-46.387,59.082,-8.301,0.000
1681290681.908,-13.672,-47.363,53.711,-17.578,0.000
1681290681.912,-20.020,-46.387,41.992,-31.250,0.000
1681290681.915,-25.879,-49.316,39.062,-34.180,0.000
1681290681.919,-27.344,-47.852,43.945,-29.297,0.000
1681290681.923,-16.602,-49.805,49.316,-18.066,0.000
1681290681.927,-16.602,-50.781,58.105,-18.555,0.000
1681290681.931,-20.996,-49.316,60.059,-25.391,0.000
1681290681.935,-22.949,-48.340,57.129,-29.297,0.000
1681290681.939,-30.273,-42.969,53.223,-30.273,0.000
1681290681.943,-29.297,-42.969,54.199,-22.949,0.000
1681290681.947,-19.043,-40.527,52.734,-13.184,0.000
1681290681.951,-21.973,-41.992,49.316,-17.578,0.000
1681290681.955,-34.668,-44.434,41.992,-29.297,0.000
1681290681.958,-38.086,-45.898,41.504,-30.273,0.000
1681290681.962,-31.250,-43.457,49.316,-21.973,0.000
1681290681.966,-30.762,-40.527,52.734,-16.113,0.000
1681290681.970,-27.344,-41.992,47.363,-18.555,0.000
1681290681.974,-32.715,-39.551,46.875,-31.250,0.000
1681290681.978,-39.551,-41.016,51.270,-40.039,0.000
1681290681.982,-25.391,-40.039,51.270,-30.762,0.000
1681290681.986,-16.113,-38.086,53.223,-17.578,0.000
1681290681.990,-17.090,-41.992,53.711,-22.949,0.000
1681290681.994,-20.508,-50.781,52.734,-29.785,0.000
1681290681.998,-29.297,-50.781,47.363,-36.133,0.000
1681290682.001,-35.156,-48.340,41.992,-38.086,0.000
1681290682.005,-29.297,-43.945,45.410,-19.531,0.000
1681290682.009,-21.484,-36.621,44.922,-14.648,0.000
1681290682.013,-24.414,-48.340,37.598,-32.227,0.000
1681290682.017,-28.320,-55.176,39.551,-36.133,0.000
1681290682.021,-27.832,-54.688,37.109,-32.715,0.000
1681290682.025,-23.926,-49.805,33.691,-32.715,0.000
1681290682.029,-19.043,-44.922,40.039,-19.043,0.000
1681290682.033,-21.973,-50.781,36.133,-31.738,0.000
1681290682.037,-29.297,-52.246,30.762,-48.340,0.000
1681290682.040,-23.438,-46.875,40.039,-27.832,0.000
1681290682.044,-17.090,-40.527,41.504,-19.043,0.000
1681290682.048,-16.113,-39.062,43.945,-14.648,0.000
1681290682.052,-27.832,-46.387,48.828,-20.996,0.000
1681290682.056,-38.574,-42.969,46.875,-36.133,0.000
1681290682.060,-30.273,-36.133,47.363,-37.109,0.000
1681290682.064,-29.297,-39.062,44.922,-35.156,0.000
1681290682.068,-32.715,-43.945,42.480,-32.227,0.000
1681290682.072,-24.414,-44.434,40.527,-35.645,0.000
1681290682.076,-29.297,-45.410,33.691,-41.992,0.000
1681290682.080,-35.645,-43.945,32.227,-36.621,0.000
1681290682.083,-10.254,-43.945,43.945,-11.230,0.000
1681290682.087,-14.648,-50.781,47.852,-9.277,0.000
1681290682.091,-50.781,-53.711,44.922,-38.086,0.000
1681290682.095,-57.617,-60.547,42.480,-51.270,0.000
1681290682.099,-54.199,-62.012,42.969,-41.016,0.000
1681290682.103,-54.199,-57.617,52.246,-29.297,0.000
1681290682.107,-52.734,-58.594,53.711,-21.973,0.000
1681290682.111,-44.922,-65.430,60.059,-24.902,0.000
1681290682.115,-38.574,-63.965,63.965,-28.320,0.000
1681290682.119,-42.969,-63.477,54.199,-31.250,0.000
1681290682.123,-52.246,-70.312,47.852,-37.109,0.000
1681290682.126,-36.621,-69.336,47.363,-16.602,0.000
1681290682.130,-17.578,-64.453,47.852,-8.301,0.000
1681290682.134,-25.879,-60.547,46.387,-20.508,0.000
1681290682.138,-29.297,-55.664,46.875,-18.555,0.000
1681290682.142,-22.949,-53.711,53.711,-13.184,0.000
1681290682.146,-23.438,-60.059,49.316,-10.742,0.000
1681290682.150,-38.574,-69.336,39.062,-16.602,0.000
1681290682.154,-45.898,-67.871,35.156,-28.320,0.000
1681290682.158,-43.945,-67.383,27.832,-31.738,0.000
1681290682.162,-39.551,-66.406,32.227,-29.785,0.000
1681290682.165,-28.809,-59.082,43.945,-22.949,0.000
1681290682.169,-26.855,-54.688,41.016,-20.508,0.000
1681290682.173,-33.203,-50.781,41.016,-25.879,0.000
1681290682.177,-41.504,-52.246,44.922,-40.039,0.000
1681290682.181,-48.828,-53.711,41.992,-39.062,0.000
1681290682.185,-36.133,-51.270,43.945,-23.926,0.000
1681290682.189,-26.855,-54.688,42.969,-24.414,0.000
1681290682.193,-29.785,-57.129,40.039,-24.902,0.000
1681290682.197,-28.809,-58.105,40.527,-25.391,0.000
1681290682.201,-21.973,-50.293,37.598,-23.926,0.000
1681290682.205,-14.160,-44.922,35.645,-16.113,0.000
1681290682.208,-19.043,-47.852,35.645,-18.066,0.000
1681290682.212,-23.438,-50.293,30.273,-25.391,0.000
1681290682.216,-23.926,-51.270,25.391,-30.762,0.000
1681290682.220,-26.855,-49.316,18.555,-25.879,0.000
1681290682.224,-35.645,-56.641,5.859,-32.715,0.000
1681290682.228,-41.992,-60.547,9.277,-41.016,0.000
1681290682.232,-31.738,-59.570,12.207,-32.715,0.000
1681290682.236,-28.320,-57.617,2.441,-38.086,0.000
1681290682.240,-31.250,-52.734,-5.371,-40.527,0.000
1681290682.244,-25.391,-47.852,-9.277,-26.855,0.000
1681290682.248,-24.902,-49.316,-9.766,-21.973,0.000
1681290682.251,-28.809,-53.711,-3.418,-33.691,0.000
1681290682.255,-31.738,-55.176,1.953,-37.598,0.000
1681290682.259,-30.273,-54.688,1.953,-35.156,0.000
1681290682.263,-34.180,-54.199,3.906,-41.016,0.000
1681290682.267,-37.109,-60.059,1.953,-41.016,0.000
1681290682.271,-34.668,-61.523,-1.465,-30.762,0.000
1681290682.275,-43.457,-62.012,-20.996,-39.062,0.000
1681290682.279,-45.410,-57.617,-40.527,-53.223,0.000
1681290682.283,-35.156,-52.734,-35.156,-37.598,0.000
1681290682.287,-32.227,-60.547,-41.504,-31.250,0.000
1681290682.290,-37.598,-61.523,-43.945,-33.691,0.000
1681290682.294,-39.062,-56.641,-41.016,-28.320,0.000
1681290682.298,-29.785,-53.223,-51.758,-31.738,0.000
1681290682.302,-19.531,-51.270,-49.805,-22.949,0.000
1681290682.306,-41.016,-45.410,-39.551,-30.273,0.000
1681290682.310,-57.129,-52.734,-41.992,-30.762,0.000
1681290682.314,-40.039,-58.594,-39.062,-24.902,0.000
1681290682.318,-38.574,-54.688,-36.621,-43.457,0.000
1681290682.322,-34.668,-51.758,-37.598,-38.086,0.000
1681290682.326,-33.691,-51.758,-34.668,-25.391,0.000
1681290682.330,-37.598,-55.176,-28.320,-35.645,0.000
1681290682.333,-27.344,-51.270,-21.484,-40.527,0.000
1681290682.337,-31.250,-46.387,-22.461,-36.133,0.000
1681290682.341,-39.062,-50.781,-32.227,-36.621,0.000
1681290682.345,-30.762,-56.641,-24.414,-30.273,0.000
1681290682.349,-33.203,-54.688,-8.789,-25.391,0.000
1681290682.353,-37.109,-47.363,-14.160,-32.227,0.000
1681290682.357,-39.062,-48.340,-19.531,-38.574,0.000
1681290682.361,-38.086,-51.758,-19.043,-37.598,0.000
1681290682.365,-30.273,-51.270,-18.066,-28.320,0.000
1681290682.369,-35.645,-54.199,-17.578,-26.855,0.000
1681290682.373,-43.945,-62.012,-16.113,-33.203,0.000
1681290682.376,-42.480,-61.523,-6.836,-37.109,0.000
1681290682.380,-39.062,-53.223,-2.930,-32.715,0.000
1681290682.384,-34.180,-54.688,-0.488,-29.297,0.000
1681290682.388,-32.227,-55.176,-5.859,-36.133,0.000
1681290682.392,-40.039,-59.570,-14.648,-36.133,0.000
1681290682.396,-45.898,-61.035,-24.414,-35.645,0.000
1681290682.400,-44.434,-52.246,-20.508,-39.062,0.000
1681290682.404,-36.621,-43.945,-3.906,-30.273,0.000
1681290682.408,-34.668,-47.363,-16.113,-14.648,0.000
1681290682.412,-37.598,-57.617,-27.832,-24.902,0.000
1681290682.415,-29.785,-58.594,-13.672,-36.621,0.000
1681290682.419,-32.227,-59.570,-4.883,-26.367,0.000
1681290682.423,-30.273,-62.012,-10.254,-17.578,0.000
1681290682.427,-20.020,-56.152,-5.859,-11.230,0.000
1681290682.431,-25.879,-54.688,-7.324,-12.695,0.000
1681290682.435,-32.715,-57.129,-9.766,-28.320,0.000
1681290682.439,-33.203,-53.711,-0.488,-28.809,0.000
1681290682.443,-35.156,-49.805,-1.465,-22.461,0.000
1681290682.447,-32.227,-53.711,-3.906,-19.043,0.000
1681290682.451,-37.109,-60.547,-5.859,-19.531,0.000
1681290682.455,-37.598,-59.082,-9.766,-30.762,0.000
1681290682.458,-34.180,-51.758,-4.883,-37.598,0.000
1681290682.462,-34.180,-47.852,-0.977,-33.691,0.000
1681290682.466,-30.273,-49.805,-1.953,-28.320,0.000
1681290682.470,-32.227,-52.734,-4.883,-35.156,0.000
1681290682.474,-34.668,-53.223,-4.883,-43.457,0.000
1681290682.478,-38.574,-60.059,-1.465,-48.340,0.000
1681290682.482,-36.621,-51.758,-3.906,-47.363,0.000
1681290682.486,-22.461,-44.434,-4.395,-24.902,0.000
1681290682.490,-16.602,-59.082,-4.883,-28.809,0.000
1681290682.494,-21.484,-57.129,-8.301,-44.434,0.000
1681290682.497,-28.809,-51.270,-8.789,-24.414,0.000
1681290682.501,-30.273,-53.711,-0.977,-22.949,0.000
1681290682.505,-25.391,-50.781,4.883,-22.461,0.000
1681290682.509,-29.785,-50.293,3.418,-20.996,0.000
1681290682.513,-28.809,-50.781,2.930,-22.461,0.000
1681290682.517,-25.879,-46.875,-0.488,-26.855,0.000
1681290682.521,-27.344,-43.457,-1.953,-28.320,0.000
1681290682.525,-23.926,-43.945,-2.441,-23.438,0.000
1681290682.529,-24.902,-46.875,-1.953,-23.926,0.000
1681290682.533,-29.297,-48.828,2.930,-27.832,0.000
1681290682.537,-35.645,-51.270,2.441,-40.039,0.000
1681290682.540,-41.504,-46.387,0.488,-46.387,0.000
1681290682.544,-34.180,-45.898,5.371,-36.133,0.000
1681290682.548,-26.855,-48.340,7.324,-25.879,0.000
1681290682.552,-32.227,-51.758,2.441,-35.156,0.000
1681290682.556,-35.645,-54.688,0.000,-44.922,0.000
1681290682.560,-40.039,-51.270,-0.977,-49.316,0.000
1681290682.564,-33.203,-43.457,-1.953,-40.039,0.000
1681290682.568,-24.902,-39.551,-2.441,-23.926,0.000
1681290682.572,-29.297,-43.457,-1.953,-24.414,0.000
1681290682.576,-29.785,-46.875,3.906,-27.344,0.000
1681290682.580,-24.414,-45.898,6.348,-26.367,0.000
1681290682.583,-24.414,-59.082,0.000,-33.691,0.000
1681290682.587,-30.273,-60.547,3.906,-36.621,0.000
1681290682.591,-28.809,-43.457,17.090,-24.414,0.000
1681290682.595,-26.855,-47.363,20.508,-24.902,0.000
1681290682.599,-30.762,-54.688,15.625,-28.320,0.000
1681290682.603,-37.598,-52.734,9.766,-25.879,0.000
1681290682.607,-23.438,-49.316,2.930,-12.695,0.000
1681290682.611,0.977,-43.945,8.301,10.742,0.000
1681290682.615,-21.973,-53.223,15.137,-11.230,0.000
1681290682.619,-58.594,-59.082,8.789,-46.875,0.000
1681290682.622,-48.340,-54.199,7.812,-39.062,0.000
