timestamps,TP9,AF7,AF8,TP10,Right AUX
1681290749.943,-35.156,-41.992,143.066,-33.691,0.000
1681290749.947,-37.109,-41.992,138.672,-33.691,0.000
1681290749.951,-28.809,-43.945,138.184,-24.902,0.000
1681290749.955,-34.180,-43.457,127.930,-26.855,0.000
1681290749.959,-36.133,-43.945,129.395,-32.715,0.000
1681290749.962,-31.738,-44.434,133.301,-36.621,0.000
1681290749.966,-30.273,-38.574,129.395,-38.574,0.000
1681290749.970,-32.227,-41.992,129.395,-33.203,0.000
1681290749.974,-34.668,-48.340,121.094,-22.949,0.000
1681290749.978,-32.715,-44.434,121.094,-24.414,0.000
1681290749.982,-27.832,-43.945,125.977,-29.297,0.000
1681290749.986,-28.320,-43.457,126.953,-20.508,0.000
1681290749.990,-25.879,-38.574,130.859,-8.301,0.000
1681290749.994,-23.438,-40.039,130.859,-6.836,0.000
1681290749.998,-31.738,-43.457,123.535,-15.137,0.000
1681290750.001,-30.762,-44.434,115.723,-24.414,0.000
1681290750.005,-24.414,-44.922,123.047,-23.438,0.000
1681290750.009,-24.902,-43.457,125.000,-9.766,0.000
1681290750.013,-28.809,-42.969,122.070,-11.719,0.000
1681290750.017,-32.227,-40.039,120.605,-27.344,0.000
1681290750.021,-24.414,-36.133,116.211,-31.250,0.000
1681290750.025,-17.090,-38.086,115.723,-23.926,0.000
1681290750.029,-20.996,-38.574,113.281,-19.043,0.000
1681290750.033,-29.785,-43.457,108.398,-19.531,0.000
1681290750.037,-28.320,-47.363,101.074,-17.578,0.000
1681290750.041,-31.738,-41.992,90.332,-23.926,0.000
1681290750.044,-35.156,-35.156,82.031,-25.391,0.000
1681290750.048,-22.461,-37.598,76.172,-18.555,0.000
1681290750.052,-30.273,-42.969,65.430,-21.973,0.000
1681290750.056,-27.344,-40.527,67.871,-19.043,0.000
1681290750.060,-26.367,-36.621,71.289,-23.926,0.000
1681290750.064,-33.203,-39.551,65.918,-32.227,0.000
1681290750.068,-28.320,-38.086,60.547,-25.879,0.000
1681290750.072,-34.180,-42.969,55.664,-21.484,0.000
1681290750.076,-34.180,-45.898,53.711,-28.320,0.000
1681290750.080,-31.250,-38.574,47.852,-31.738,0.000
1681290750.084,-27.832,-34.668,39.062,-33.203,0.000
1681290750.087,-24.414,-33.691,42.969,-25.391,0.000
1681290750.091,-22.461,-33.691,45.410,-17.578,0.000
1681290750.095,-24.414,-34.180,45.898,-27.344,0.000
1681290750.099,-30.762,-36.621,45.898,-38.086,0.000
1681290750.103,-33.691,-33.691,42.969,-35.156,0.000
1681290750.107,-27.832,-29.297,41.016,-30.762,0.000
1681290750.111,-32.715,-34.180,36.621,-24.902,0.000
1681290750.115,-33.203,-34.180,30.273,-22.461,0.000
1681290750.119,-18.555,-31.250,32.227,-25.879,0.000
1681290750.123,-22.949,-37.109,39.062,-32.227,0.000
1681290750.126,-25.879,-38.086,42.480,-35.156,0.000
1681290750.130,-18.555,-31.250,43.457,-24.902,0.000
1681290750.134,-25.879,-26.855,41.504,-25.391,0.000
1681290750.138,-33.203,-27.832,35.645,-38.086,0.000
1681290750.142,-26.855,-36.133,33.203,-43.945,0.000
1681290750.146,-25.879,-31.250,28.809,-32.227,0.000
1681290750.150,-20.996,-28.320,7.812,-21.484,0.000
1681290750.154,-27.344,-31.738,-10.742,-25.391,0.000
1681290750.158,-36.621,-34.668,-21.484,-33.691,0.000
1681290750.162,-44.922,-41.504,-24.414,-48.340,0.000
1681290750.166,-40.039,-40.039,-22.461,-41.504,0.000
1681290750.169,-32.227,-40.039,-30.273,-32.227,0.000
1681290750.173,-35.156,-42.480,-42.969,-33.203,0.000
1681290750.177,-31.738,-41.992,-39.062,-32.715,0.000
1681290750.181,-41.016,-40.527,-20.020,-44.434,0.000
1681290750.185,-39.062,-35.645,-12.695,-34.180,0.000
1681290750.189,-36.621,-38.086,-10.254,-30.273,0.000
1681290750.193,-37.109,-40.527,-7.324,-35.156,0.000
1681290750.197,-39.551,-43.457,-10.742,-39.062,0.000
1681290750.201,-48.828,-46.875,-6.348,-44.434,0.000
1681290750.205,-51.270,-47.852,3.418,-35.645,0.000
1681290750.209,-47.363,-50.781,6.348,-32.715,0.000
1681290750.212,-34.668,-48.340,10.254,-26.855,0.000
1681290750.216,-30.762,-43.457,12.695,-25.391,0.000
1681290750.220,-33.203,-41.016,14.648,-35.156,0.000
1681290750.224,-23.926,-42.480,19.531,-37.109,0.000
1681290750.228,-16.602,-37.598,16.113,-29.785,0.000
1681290750.232,-24.414,-36.133,16.602,-30.762,0.000
1681290750.236,-29.297,-40.527,21.484,-37.598,0.000
1681290750.240,-30.762,-35.156,17.578,-41.016,0.000
1681290750.244,-33.203,-35.645,17.090,-45.410,0.000
1681290750.248,-29.785,-33.203,21.484,-39.551,0.000
1681290750.251,-25.391,-32.715,25.879,-25.879,0.000
1681290750.255,-21.973,-37.598,31.250,-23.926,0.000
1681290750.259,-29.297,-35.645,27.344,-33.203,0.000
1681290750.263,-37.109,-35.156,26.855,-32.715,0.000
1681290750.267,-33.203,-39.551,25.391,-32.227,0.000
1681290750.271,-27.344,-33.691,22.461,-22.949,0.000
1681290750.275,-33.203,-32.715,26.855,-21.484,0.000
1681290750.279,-44.434,-41.504,25.879,-37.598,0.000
1681290750.283,-38.086,-42.969,26.367,-45.410,0.000
1681290750.287,-25.879,-49.805,22.949,-41.992,0.000
1681290750.291,-34.180,-46.387,16.602,-37.109,0.000
1681290750.294,-36.133,-38.574,18.555,-30.273,0.000
1681290750.298,-28.320,-41.992,20.508,-30.762,0.000
1681290750.302,-30.762,-40.527,26.367,-44.922,0.000
1681290750.306,-32.227,-41.992,28.809,-42.480,0.000
1681290750.310,-29.297,-44.434,28.809,-32.227,0.000
1681290750.314,-29.297,-36.133,29.785,-29.297,0.000
1681290750.318,-37.598,-37.598,24.902,-31.738,0.000
1681290750.322,-42.969,-45.898,26.367,-41.992,0.000
1681290750.326,-39.062,-43.457,33.691,-40.527,0.000
1681290750.330,-29.785,-37.109,31.250,-27.344,0.000
1681290750.334,-32.715,-39.551,23.926,-26.855,0.000
1681290750.337,-40.039,-39.062,14.160,-24.902,0.000
1681290750.341,-37.109,-37.109,-56.152,-23.926,0.000
1681290750.345,-40.527,-37.598,-134.277,-29.785,0.000
1681290750.349,-39.062,-35.645,-163.574,-23.926,0.000
1681290750.353,-20.508,-36.133,-166.504,-18.066,0.000
1681290750.357,-34.668,-38.574,-142.578,-32.227,0.000
1681290750.361,-48.828,-38.086,-124.512,-42.480,0.000
1681290750.365,-23.926,-36.133,-104.980,-32.227,0.000
1681290750.369,-24.414,-33.691,-88.379,-22.949,0.000
1681290750.373,-28.320,-34.180,-79.102,-24.902,0.000
1681290750.376,-30.273,-39.062,-71.289,-28.809,0.000
1681290750.380,-25.391,-40.527,-63.477,-36.621,0.000
1681290750.384,-19.531,-34.180,-52.246,-41.016,0.000
1681290750.388,-28.320,-36.133,-41.504,-40.039,0.000
1681290750.392,-21.973,-37.598,-28.809,-34.180,0.000
1681290750.396,-32.227,-39.551,-20.020,-33.203,0.000
1681290750.400,-30.762,-41.016,-15.625,-43.945,0.000
1681290750.404,-25.391,-39.551,-9.766,-47.363,0.000
1681290750.408,-32.227,-39.551,-3.906,-41.504,0.000
1681290750.412,-33.691,-38.574,-17.578,-30.273,0.000
1681290750.416,-30.273,-34.668,-37.598,-19.043,0.000
1681290750.419,-39.062,-36.133,-46.875,-23.926,0.000
1681290750.423,-43.457,-42.480,-53.223,-29.785,0.000
1681290750.427,-38.574,-45.898,-64.453,-30.762,0.000
1681290750.431,-32.715,-46.387,-78.125,-36.621,0.000
1681290750.435,-25.391,-44.434,-73.730,-34.668,0.000
1681290750.439,-31.250,-39.062,-58.594,-29.297,0.000
1681290750.443,-34.668,-40.039,-59.570,-37.109,0.000
1681290750.447,-37.598,-34.668,-61.523,-35.156,0.000
1681290750.451,-36.133,-33.691,-58.594,-23.438,0.000
1681290750.455,-18.066,-42.480,-62.500,-16.602,0.000
1681290750.459,-13.184,-43.457,-60.059,-14.160,0.000
1681290750.462,-43.457,-42.969,-55.664,-45.898,0.000
1681290750.466,-55.664,-42.480,-58.105,-52.246,0.000
1681290750.470,-38.086,-41.016,-53.711,-25.879,0.000
1681290750.474,-33.691,-38.574,-39.551,-17.578,0.000
1681290750.478,-39.062,-41.992,-21.973,-21.484,0.000
1681290750.482,-45.410,-46.875,-16.602,-32.227,0.000
1681290750.486,-49.316,-49.805,-13.184,-34.180,0.000
1681290750.490,-37.109,-46.875,-6.836,-27.832,0.000
1681290750.494,-38.086,-41.016,-9.766,-36.621,0.000
1681290750.498,-41.992,-42.480,-10.742,-42.969,0.000
1681290750.501,-39.551,-44.434,-9.277,-38.086,0.000
1681290750.505,-45.410,-45.898,-2.930,-37.109,0.000
1681290750.509,-54.199,-46.875,-1.465,-34.180,0.000
1681290750.513,-42.480,-46.387,-3.906,-32.227,0.000
1681290750.517,-31.738,-43.457,-1.953,-28.809,0.000
1681290750.521,-41.992,-41.992,-1.465,-31.250,0.000
1681290750.525,-37.598,-41.992,1.953,-28.320,0.000
1681290750.529,-29.785,-40.039,-2.930,-22.461,0.000
1681290750.533,-27.832,-41.016,-0.977,-19.043,0.000
1681290750.537,-25.391,-39.062,3.906,-15.137,0.000
1681290750.541,-26.855,-34.180,7.812,-23.438,0.000
1681290750.544,-31.250,-35.645,4.395,-29.785,0.000
1681290750.548,-23.438,-40.527,-3.418,-32.227,0.000
1681290750.552,-26.855,-39.551,-0.977,-31.250,0.000
1681290750.556,-31.738,-41.016,1.465,-27.344,0.000
1681290750.560,-28.809,-43.457,-5.371,-33.203,0.000
1681290750.564,-27.344,-38.574,-7.812,-41.016,0.000
1681290750.568,-28.320,-37.598,-4.883,-34.180,0.000
1681290750.572,-25.879,-40.527,-3.906,-22.461,0.000
1681290750.576,-16.602,-41.504,-10.254,-24.414,0.000
1681290750.580,-20.020,-42.969,-12.695,-26.367,0.000
1681290750.583,-23.438,-51.270,-9.766,-28.809,0.000
1681290750.587,-22.949,-56.152,3.418,-21.973,0.000
1681290750.591,-30.273,-51.270,15.625,-18.555,0.000
1681290750.595,-25.391,-44.434,24.414,-21.484,0.000
1681290750.599,-20.508,-41.016,32.227,-23.438,0.000
1681290750.603,-24.902,-44.922,55.176,-31.250,0.000
1681290750.607,-31.250,-48.340,122.070,-35.156,0.000
1681290750.611,-26.367,-47.852,163.086,-27.832,0.000
1681290750.615,-19.531,-43.945,167.969,-17.090,0.000
1681290750.619,-26.367,-41.992,167.480,-19.531,0.000
1681290750.623,-27.832,-46.387,165.039,-30.273,0.000
1681290750.626,-21.484,-40.039,164.551,-32.715,0.000
1681290750.630,-21.973,-36.133,154.785,-21.484,0.000
1681290750.634,-15.137,-37.109,146.484,-15.625,0.000
1681290750.638,-8.789,-36.133,142.090,-20.020,0.000
1681290750.642,-20.508,-36.133,134.277,-36.621,0.000
1681290750.646,-34.668,-35.156,122.070,-37.598,0.000
1681290750.650,-25.391,-35.156,116.211,-28.320,0.000
1681290750.654,-18.555,-36.133,112.793,-22.949,0.000
1681290750.658,-25.879,-34.180,99.609,-22.949,0.000
1681290750.662,-30.273,-32.227,96.191,-27.832,0.000
1681290750.666,-41.992,-31.250,97.656,-31.250,0.000
1681290750.669,-38.086,-35.645,90.820,-24.902,0.000
1681290750.673,-32.227,-36.621,83.984,-17.578,0.000
1681290750.677,-30.273,-29.785,81.055,-20.508,0.000
1681290750.681,-18.555,-28.809,79.102,-29.785,0.000
1681290750.685,-24.414,-30.762,74.219,-31.250,0.000
1681290750.689,-27.344,-31.250,68.848,-21.973,0.000
1681290750.693,-21.484,-25.391,63.965,-16.602,0.000
1681290750.697,-20.996,-20.996,62.012,-17.578,0.000
1681290750.701,-30.273,-27.344,56.641,-35.156,0.000
1681290750.705,-35.156,-35.156,44.434,-43.457,0.000
1681290750.708,-29.297,-28.809,38.574,-24.902,0.000
1681290750.712,-17.578,-28.809,33.691,-15.137,0.000
1681290750.716,-16.113,-35.156,27.344,-16.113,0.000
1681290750.720,-31.250,-30.762,26.855,-21.973,0.000
1681290750.724,-38.086,-31.250,28.320,-23.926,0.000
1681290750.728,-21.973,-32.227,26.855,-14.160,0.000
1681290750.732,-12.695,-26.855,24.902,0.977,0.000
1681290750.736,-15.137,-25.879,27.344,-1.465,0.000
1681290750.740,-33.691,-29.785,27.344,-17.090,0.000
1681290750.744,-36.621,-29.297,25.391,-23.438,0.000
1681290750.748,-18.555,-24.902,24.902,-20.508,0.000
1681290750.751,-20.508,-27.344,28.320,-20.996,0.000
1681290750.755,-12.207,-45.898,34.668,-6.348,0.000
1681290750.759,7.812,-45.898,36.133,19.531,0.000
1681290750.763,-2.930,-13.672,28.320,-2.441,0.000
1681290750.767,-34.180,-7.324,20.020,-41.016,0.000
1681290750.771,-27.832,-10.742,14.160,-36.621,0.000
1681290750.775,-26.855,-4.883,1.953,-32.715,0.000
1681290750.779,-42.969,-7.324,-7.324,-55.664,0.000
1681290750.783,-57.617,-7.324,-11.230,-70.801,0.000
1681290750.787,-62.500,3.418,-11.719,-75.684,0.000
1681290750.791,-57.129,10.742,-14.160,-73.730,0.000
1681290750.794,-72.754,14.648,-21.484,-94.727,0.000
1681290750.798,-94.238,14.160,-30.762,-123.047,0.000
1681290750.802,-96.680,17.090,-28.809,-121.582,0.000
1681290750.806,-111.328,19.043,-38.086,-135.742,0.000
1681290750.810,-110.352,24.414,-52.734,-140.625,0.000
1681290750.814,-100.586,34.668,-56.152,-141.602,0.000
1681290750.818,-113.281,27.344,-54.199,-150.879,0.000
1681290750.822,-119.629,26.855,-48.828,-158.203,0.000
1681290750.826,-132.812,37.109,-53.711,-177.734,0.000
1681290750.830,-136.719,32.227,-52.246,-183.105,0.000
1681290750.833,-128.418,24.414,-53.711,-167.480,0.000
1681290750.837,-128.906,30.762,-56.152,-165.527,0.000
1681290750.841,-120.605,32.715,-49.316,-172.852,0.000
1681290750.845,-118.164,27.832,-47.852,-167.969,0.000
1681290750.849,-117.188,23.926,-52.734,-151.367,0.000
1681290750.853,-99.609,16.602,-60.547,-135.254,0.000
1681290750.857,-93.750,15.625,-55.664,-129.395,0.000
1681290750.861,-88.379,12.207,-47.363,-116.211,0.000
1681290750.865,-74.707,11.719,-46.387,-105.957,0.000
1681290750.869,-71.289,5.859,-46.387,-99.609,0.000
1681290750.873,-55.664,-3.418,-50.781,-74.707,0.000
1681290750.876,-52.246,-6.836,-56.152,-72.266,0.000
1681290750.880,-54.688,-10.254,-57.129,-74.707,0.000
1681290750.884,-41.504,-9.766,-50.781,-62.500,0.000
1681290750.888,-24.414,-15.625,-51.270,-50.781,0.000
1681290750.892,-6.348,-17.090,-50.293,-30.762,0.000
1681290750.896,-3.906,-18.066,-41.992,-19.531,0.000
1681290750.900,-1.953,-22.461,-37.109,-25.879,0.000
1681290750.904,4.883,-27.344,-36.621,-24.902,0.000
1681290750.908,9.277,-32.227,-36.133,-10.742,0.000
1681290750.912,9.277,-34.180,-39.062,-5.371,0.000
1681290750.916,3.906,-37.109,-40.039,-2.441,0.000
1681290750.919,9.766,-41.016,-37.598,-6.836,0.000
1681290750.923,16.113,-45.410,-31.738,-6.836,0.000
1681290750.927,14.648,-45.410,-24.414,6.836,0.000
1681290750.931,19.043,-41.504,-16.113,18.066,0.000
1681290750.935,17.578,-39.551,-13.184,19.043,0.000
1681290750.939,6.348,-41.504,-18.555,10.742,0.000
1681290750.943,3.418,-49.805,-22.461,6.348,0.000
1681290750.947,7.812,-57.129,-26.367,7.812,0.000
1681290750.951,16.113,-47.852,-28.320,19.043,0.000
1681290750.955,17.090,-49.805,-28.320,22.461,0.000
1681290750.958,14.160,-52.734,-30.762,17.090,0.000
1681290750.962,12.695,-48.340,-33.691,12.207,0.000
1681290750.966,9.277,-46.387,-33.691,10.254,0.000
1681290750.970,10.254,-47.852,-32.715,14.160,0.000
1681290750.974,12.207,-50.293,-40.527,16.602,0.000
1681290750.978,12.207,-48.340,-44.434,13.672,0.000
1681290750.982,3.906,-46.875,-39.062,4.395,0.000
1681290750.986,-5.371,-53.711,-39.551,-3.906,0.000
1681290750.990,-3.906,-56.641,-38.574,2.930,0.000
1681290750.994,-3.418,-51.270,-31.738,0.488,0.000
1681290750.998,-10.742,-54.199,-30.273,-15.137,0.000
1681290751.001,-1.953,-52.246,-27.344,0.977,0.000
1681290751.005,6.348,-52.734,-29.297,12.695,0.000
1681290751.009,-9.277,-52.734,-30.762,10.254,0.000
1681290751.013,-11.719,-50.781,-24.414,1.465,0.000
1681290751.017,-6.836,-53.711,-28.320,-12.207,0.000
1681290751.021,-4.395,-49.316,-26.367,0.977,0.000
1681290751.025,0.000,-46.875,-19.531,14.160,0.000
1681290751.029,1.953,-43.457,-24.902,5.859,0.000
1681290751.033,-2.930,-38.086,-27.832,-6.348,0.000
1681290751.037,-6.836,-46.387,-27.832,-7.324,0.000
1681290751.041,0.000,-48.828,-29.785,3.418,0.000
1681290751.044,-0.977,-42.480,-29.785,6.348,0.000
1681290751.048,-8.301,-45.898,-25.391,-4.883,0.000
1681290751.052,-10.254,-46.875,-24.902,-6.348,0.000
1681290751.056,-10.742,-43.945,-26.855,0.977,0.000
1681290751.060,-14.160,-39.062,-25.391,1.465,0.000
1681290751.064,-18.066,-41.016,-21.484,4.395,0.000
1681290751.068,-11.719,-43.945,-22.461,-4.395,0.000
1681290751.072,-13.184,-41.504,-27.832,-14.648,0.000
1681290751.076,-18.555,-42.969,-29.297,-15.137,0.000
1681290751.080,-25.879,-48.828,-34.668,-10.742,0.000
1681290751.084,-25.879,-48.340,-33.691,-10.742,0.000
1681290751.087,-20.508,-52.734,-32.227,-11.230,0.000
1681290751.091,-20.020,-52.246,-33.691,-13.672,0.000
1681290751.095,-18.555,-47.852,-27.344,-16.602,0.000
1681290751.099,-9.766,-48.340,-20.508,-4.883,0.000
1681290751.103,-15.625,-47.363,-21.973,-3.418,0.000
1681290751.107,-28.809,-50.781,-21.484,-10.742,0.000
1681290751.111,-33.691,-48.340,-21.484,-20.508,0.000
1681290751.115,-31.738,-45.410,-27.832,-22.461,0.000
1681290751.119,-21.973,-42.969,-21.973,-16.602,0.000
1681290751.123,-22.461,-39.062,-20.508,-14.160,0.000
1681290751.126,-25.391,-43.457,-23.438,-14.160,0.000
1681290751.130,-37.598,-47.363,-23.438,-19.531,0.000
1681290751.134,-27.832,-43.457,-21.973,-20.996,0.000
1681290751.138,-24.902,-43.945,-26.367,-21.973,0.000
1681290751.142,-34.180,-44.922,-29.785,-19.531,0.000
1681290751.146,-25.879,-39.551,-25.391,-15.625,0.000
1681290751.150,-22.461,-37.598,-30.762,-20.020,0.000
1681290751.154,-29.785,-42.969,-33.691,-26.367,0.000
1681290751.158,-25.879,-42.969,-29.785,-18.066,0.000
1681290751.162,-21.973,-36.621,-25.879,-11.719,0.000
1681290751.166,-24.902,-38.086,-29.785,-12.207,0.000
1681290751.169,-20.508,-41.504,-27.344,-12.695,0.000
1681290751.173,-16.602,-42.480,-27.832,-21.484,0.000
1681290751.177,-14.648,-42.969,-31.250,-23.438,0.000
1681290751.181,-13.672,-38.574,-29.785,-17.578,0.000
1681290751.185,-21.484,-37.598,-30.762,-18.555,0.000
1681290751.189,-19.531,-38.086,-27.832,-27.344,0.000
1681290751.193,-22.461,-35.645,-32.715,-41.504,0.000
1681290751.197,-22.461,-39.551,-34.180,-42.480,0.000
1681290751.201,-12.695,-39.551,-21.973,-30.762,0.000
1681290751.205,-13.184,-39.551,-22.461,-25.391,0.000
1681290751.209,-17.578,-41.992,-31.250,-31.738,0.000
1681290751.212,-23.926,-39.551,-31.738,-38.574,0.000
1681290751.216,-32.227,-46.875,-33.691,-35.645,0.000
1681290751.220,-38.086,-48.340,-38.574,-32.227,0.000
1681290751.224,-32.227,-39.062,-35.156,-26.367,0.000
1681290751.228,-33.691,-43.945,-31.250,-21.973,0.000
1681290751.232,-42.969,-46.387,-33.691,-23.926,0.000
1681290751.236,-41.504,-40.527,-35.156,-31.250,0.000
1681290751.240,-35.156,-40.527,-30.762,-33.203,0.000
1681290751.244,-27.832,-44.434,-30.762,-22.461,0.000
1681290751.248,-30.273,-41.504,-28.809,-21.973,0.000
1681290751.251,-33.691,-35.156,-22.461,-30.762,0.000
1681290751.255,-39.551,-38.086,-24.414,-38.574,0.000
1681290751.259,-37.109,-43.457,-21.484,-33.691,0.000
1681290751.263,-24.902,-38.574,-15.137,-20.020,0.000
1681290751.267,-24.902,-32.715,-18.555,-21.973,0.000
1681290751.271,-31.738,-36.621,-26.367,-29.297,0.000
1681290751.275,-35.156,-36.621,-25.879,-28.809,0.000
1681290751.279,-31.250,-34.180,-27.344,-23.438,0.000
1681290751.283,-30.762,-41.016,-27.832,-21.973,0.000
1681290751.287,-39.062,-43.457,-19.043,-19.531,0.000
1681290751.291,-26.855,-41.504,-23.926,-14.160,0.000
1681290751.294,-18.555,-37.598,-30.273,-18.066,0.000
1681290751.298,-29.297,-40.039,-29.297,-18.066,0.000
1681290751.302,-22.461,-41.992,-32.715,-8.789,0.000
1681290751.306,-14.160,-41.016,-35.156,-8.789,0.000
1681290751.310,-15.137,-37.109,-37.598,-20.508,0.000
1681290751.314,-13.184,-40.527,-36.621,-29.785,0.000
1681290751.318,-20.996,-43.945,-32.715,-23.438,0.000
1681290751.322,-19.531,-40.039,-30.762,-8.789,0.000
1681290751.326,-10.742,-40.039,-31.738,-7.324,0.000
1681290751.330,-14.160,-41.016,-33.203,-19.531,0.000
1681290751.334,-22.461,-40.527,-33.691,-33.203,0.000
1681290751.337,-23.926,-40.527,-37.598,-29.785,0.000
1681290751.341,-18.066,-42.480,-38.574,-17.578,0.000
1681290751.345,-11.230,-45.898,-39.062,-13.672,0.000
1681290751.349,-18.066,-40.527,-39.062,-18.555,0.000
1681290751.353,-33.691,-37.109,-38.086,-29.785,0.000
1681290751.357,-30.273,-43.457,-36.133,-33.203,0.000
1681290751.361,-19.531,-44.922,-41.504,-25.879,0.000
1681290751.365,-16.602,-42.480,-46.875,-18.066,0.000
1681290751.369,-17.578,-46.387,-41.504,-21.484,0.000
1681290751.373,-26.367,-46.387,-40.527,-29.785,0.000
1681290751.376,-28.320,-40.527,-40.527,-19.531,0.000
1681290751.380,-23.438,-38.574,-41.504,-9.277,0.000
1681290751.384,-20.020,-41.016,-43.457,-18.555,0.000
1681290751.388,-8.301,-44.434,-40.527,-20.996,0.000
1681290751.392,-9.766,-41.016,-35.645,-15.137,0.000
1681290751.396,-21.484,-42.480,-38.086,-14.648,0.000
1681290751.400,-5.371,-39.551,-41.016,-6.348,0.000
1681290751.404,2.441,-32.715,-39.062,-0.488,0.000
1681290751.408,-4.395,-36.133,-39.551,-5.859,0.000
1681290751.412,-7.812,-32.227,-35.156,-12.695,0.000
1681290751.416,-10.254,-32.715,-33.203,-16.602,0.000
1681290751.419,-13.184,-36.133,-34.180,-18.066,0.000
1681290751.423,-9.277,-29.785,-29.785,-10.742,0.000
1681290751.427,-4.883,-30.273,-28.809,-3.906,0.000
1681290751.431,-15.137,-40.527,-33.203,-12.207,0.000
1681290751.435,-18.555,-34.180,-31.250,-28.320,0.000
1681290751.439,-13.184,-30.273,-25.879,-24.902,0.000
1681290751.443,-8.789,-33.203,-25.879,-10.254,0.000
1681290751.447,-14.160,-31.738,-30.273,-13.672,0.000
1681290751.451,-15.625,-31.250,-29.785,-27.832,0.000
1681290751.455,-15.625,-31.250,-30.762,-25.391,0.000
1681290751.459,-21.484,-27.344,-37.109,-20.508,0.000
1681290751.462,-29.297,-21.973,-41.016,-20.508,0.000
1681290751.466,-32.227,-27.344,-41.016,-21.484,0.000
1681290751.470,-32.715,-31.738,-39.551,-29.297,0.000
1681290751.474,-40.527,-33.691,-38.086,-38.574,0.000
1681290751.478,-40.527,-37.109,-37.598,-41.016,0.000
1681290751.482,-39.551,-33.691,-29.297,-40.039,0.000
1681290751.486,-40.527,-31.250,-27.344,-30.762,0.000
1681290751.490,-49.316,-34.668,-35.156,-35.156,0.000
1681290751.494,-52.246,-30.762,-40.039,-42.969,0.000
1681290751.498,-45.898,-20.996,-35.645,-36.133,0.000
1681290751.502,-54.199,-15.625,-36.133,-35.156,0.000
1681290751.505,-59.570,-7.812,-38.086,-41.016,0.000
1681290751.509,-66.406,-0.977,-38.086,-56.152,0.000
1681290751.513,-77.637,0.488,-37.109,-72.754,0.000
1681290751.517,-85.449,0.977,-34.180,-79.590,0.000
1681290751.521,-92.285,6.348,-29.785,-88.867,0.000
1681290751.525,-100.098,10.742,-33.691,-98.633,0.000
1681290751.529,-104.004,6.836,-32.715,-107.422,0.000
1681290751.533,-130.371,0.488,-28.320,-138.184,0.000
1681290751.537,-160.645,3.418,-27.344,-160.156,0.000
1681290751.541,-163.086,12.695,-20.508,-159.668,0.000
1681290751.544,-168.457,14.160,-16.113,-166.504,0.000
1681290751.548,-177.734,6.836,-14.160,-171.387,0.000
1681290751.552,-175.781,2.441,-11.230,-176.758,0.000
1681290751.556,-179.199,1.953,-8.301,-181.152,0.000
1681290751.560,-183.594,5.859,-8.301,-171.875,0.000
1681290751.564,-178.711,5.859,-6.836,-166.992,0.000
1681290751.568,-170.898,0.488,-9.766,-164.062,0.000
1681290751.572,-172.363,-9.277,-7.324,-163.574,0.000
1681290751.576,-165.527,-16.113,-9.277,-163.086,0.000
1681290751.580,-143.555,-7.812,-18.555,-142.090,0.000
1681290751.584,-124.023,-13.184,-15.625,-116.211,0.000
1681290751.587,-124.512,-26.367,-13.672,-117.188,0.000
1681290751.591,-113.281,-29.297,-13.184,-109.863,0.000
1681290751.595,-98.633,-27.832,-15.137,-92.285,0.000
1681290751.599,-101.074,-28.320,-22.949,-89.355,0.000
1681290751.603,-76.172,-32.227,-22.461,-74.707,0.000
1681290751.607,-55.664,-36.133,-24.414,-51.270,0.000
1681290751.611,-54.688,-36.133,-29.297,-51.270,0.000
1681290751.615,-46.875,-40.527,-30.762,-50.293,0.000
1681290751.619,-37.598,-47.363,-40.039,-35.645,0.000
1681290751.623,-30.762,-45.898,-40.039,-25.879,0.000
1681290751.627,-19.531,-44.434,-34.668,-12.695,0.000
1681290751.630,-12.695,-46.387,-38.574,-7.812,0.000
1681290751.634,-6.836,-46.875,-44.922,-6.836,0.000
1681290751.638,2.930,-45.898,-42.480,5.859,0.000
1681290751.642,4.395,-49.316,-42.969,10.254,0.000
1681290751.646,6.836,-54.199,-45.898,13.184,0.000
1681290751.650,5.371,-55.664,-49.316,16.602,0.000
1681290751.654,7.812,-55.176,-51.758,13.672,0.000
1681290751.658,12.207,-55.176,-45.410,15.137,0.000
1681290751.662,16.113,-55.664,-43.945,15.625,0.000
1681290751.666,17.578,-62.012,-52.734,22.461,0.000
1681290751.669,15.137,-61.523,-54.688,31.250,0.000
1681290751.673,19.531,-53.711,-50.293,24.414,0.000
1681290751.677,22.461,-53.711,-52.734,26.367,0.000
1681290751.681,23.926,-53.223,-50.781,35.645,0.000
1681290751.685,33.691,-56.641,-49.316,36.621,0.000
1681290751.689,38.086,-60.547,-49.805,37.598,0.000
1681290751.693,32.227,-56.152,-49.316,30.273,0.000
1681290751.697,29.297,-52.734,-45.898,27.344,0.000
1681290751.701,34.668,-50.781,-47.363,31.250,0.000
1681290751.705,36.133,-53.223,-48.340,31.738,0.000
1681290751.709,32.715,-56.641,-49.316,31.250,0.000
1681290751.712,24.902,-52.246,-51.270,22.461,0.000
1681290751.716,32.227,-47.363,-54.688,25.391,0.000
1681290751.720,34.668,-46.875,-49.805,34.668,0.000
1681290751.724,26.367,-48.828,-48.340,39.551,0.000
1681290751.728,21.484,-50.781,-49.316,38.574,0.000
1681290751.732,24.902,-48.828,-49.805,31.250,0.000
1681290751.736,25.391,-47.363,-49.316,28.320,0.000
1681290751.740,21.973,-50.781,-54.199,29.297,0.000
1681290751.744,23.926,-47.852,-53.223,32.227,0.000
1681290751.748,24.902,-41.992,-47.363,35.156,0.000
1681290751.752,25.391,-46.875,-52.734,28.809,0.000
1681290751.755,20.508,-52.734,-57.129,14.160,0.000
1681290751.759,19.043,-53.711,-58.594,10.742,0.000
1681290751.763,19.531,-47.852,-56.641,13.672,0.000
1681290751.767,15.137,-45.410,-54.688,6.836,0.000
1681290751.771,11.719,-50.781,-52.734,10.254,0.000
1681290751.775,3.906,-47.852,-47.852,4.883,0.000
1681290751.779,-2.441,-41.992,-52.246,-0.488,0.000
1681290751.783,4.883,-41.504,-50.781,13.184,0.000
1681290751.787,13.672,-39.062,-42.969,20.508,0.000
1681290751.791,3.418,-35.156,-45.898,10.742,0.000
1681290751.794,-9.766,-35.645,-48.828,-7.812,0.000
1681290751.798,-18.555,-40.527,-42.480,-16.113,0.000
1681290751.802,-26.367,-33.203,-40.039,-18.066,0.000
1681290751.806,-23.926,-15.625,-33.203,-14.648,0.000
1681290751.810,-37.598,-9.277,-37.109,-33.203,0.000
1681290751.814,-69.824,-10.254,-39.062,-62.012,0.000
1681290751.818,-94.238,-8.789,-31.738,-81.543,0.000
1681290751.822,-108.398,4.395,-31.738,-97.168,0.000
1681290751.826,-127.930,8.789,-32.227,-111.816,0.000
1681290751.830,-150.879,6.836,-30.273,-135.742,0.000
1681290751.834,-162.109,5.859,-24.902,-158.691,0.000
1681290751.837,-168.945,0.000,-22.949,-174.316,0.000
1681290751.841,-166.016,5.859,-21.973,-164.062,0.000
1681290751.845,-161.133,8.789,-14.160,-150.391,0.000
1681290751.849,-166.992,5.859,-5.371,-154.297,0.000
1681290751.853,-161.621,3.906,-6.836,-160.645,0.000
1681290751.857,-150.391,-6.836,-8.789,-153.809,0.000
1681290751.861,-150.879,-7.324,-7.324,-141.602,0.000
1681290751.865,-137.695,-10.742,-10.254,-122.070,0.000
1681290751.869,-122.559,-16.113,-17.578,-119.141,0.000
1681290751.873,-127.930,-17.578,-22.949,-127.441,0.000
1681290751.877,-120.117,-18.555,-28.320,-113.281,0.000
1681290751.880,-104.492,-20.508,-27.832,-85.938,0.000
1681290751.884,-97.656,-23.438,-32.715,-79.590,0.000
1681290751.888,-85.449,-31.738,-43.945,-76.660,0.000
1681290751.892,-73.730,-41.504,-42.969,-62.988,0.000
1681290751.896,-61.035,-37.109,-37.109,-66.895,0.000
1681290751.900,-43.945,-30.273,-39.062,-53.711,0.000
1681290751.904,-27.344,-34.180,-42.969,-25.391,0.000
1681290751.908,-16.602,-41.016,-44.434,-19.043,0.000
1681290751.912,-20.508,-44.434,-48.340,-19.531,0.000
1681290751.916,-12.695,-47.852,-51.270,-11.230,0.000
1681290751.919,3.418,-51.758,-53.711,5.371,0.000
1681290751.923,2.441,-52.734,-59.082,19.043,0.000
1681290751.927,9.766,-52.246,-64.941,17.578,0.000
1681290751.931,17.578,-60.547,-63.965,12.695,0.000
1681290751.935,18.066,-60.547,-60.547,18.066,0.000
1681290751.939,28.320,-50.781,-55.664,33.203,0.000
1681290751.943,39.551,-52.246,-48.340,43.945,0.000
1681290751.947,45.898,-50.293,-32.227,53.223,0.000
1681290751.951,34.668,-51.758,-8.301,49.805,0.000
1681290751.955,34.180,-53.223,11.230,34.668,0.000
1681290751.959,37.598,-51.758,19.531,32.715,0.000
1681290751.962,34.180,-60.547,28.320,41.992,0.000
1681290751.966,32.227,-59.082,38.574,39.062,0.000
1681290751.970,23.926,-57.617,46.875,32.227,0.000
1681290751.974,24.414,-61.035,51.758,29.785,0.000
1681290751.978,28.320,-52.734,55.664,30.273,0.000
1681290751.982,27.344,-54.688,56.152,38.086,0.000
1681290751.986,31.738,-61.523,57.617,39.551,0.000
1681290751.990,26.367,-59.570,57.129,28.809,0.000
1681290751.994,23.926,-58.594,41.504,35.645,0.000
1681290751.998,33.691,-62.500,3.906,41.504,0.000
1681290752.002,25.391,-63.965,-28.320,37.109,0.000
1681290752.005,18.555,-63.477,-41.016,37.598,0.000
1681290752.009,25.391,-62.012,-48.340,31.250,0.000
1681290752.013,26.367,-60.059,-49.316,23.926,0.000
1681290752.017,14.160,-60.059,-48.340,23.926,0.000
1681290752.021,22.949,-51.758,-42.480,31.250,0.000
1681290752.025,32.715,-49.316,-37.598,36.133,0.000
1681290752.029,27.344,-51.270,-37.109,36.621,0.000
1681290752.033,30.273,-46.387,-35.156,32.227,0.000
1681290752.037,22.461,-47.852,-38.086,27.344,0.000
1681290752.041,20.996,-51.270,-36.621,37.598,0.000
1681290752.044,18.066,-53.711,-33.691,33.203,0.000
1681290752.048,11.719,-53.223,-37.109,22.949,0.000
1681290752.052,18.066,-54.199,-38.574,23.926,0.000
1681290752.056,17.578,-54.199,-32.715,17.090,0.000
1681290752.060,16.113,-47.363,-27.344,20.020,0.000
1681290752.064,20.508,-46.875,-30.273,26.855,0.000
1681290752.068,22.461,-51.270,-33.203,18.555,0.000
1681290752.072,11.719,-49.805,-35.156,6.836,0.000
1681290752.076,7.324,-52.734,-32.715,7.812,0.000
1681290752.080,10.742,-53.711,-29.785,9.277,0.000
1681290752.084,14.160,-50.781,-24.902,22.461,0.000
1681290752.087,8.789,-52.246,-20.996,32.227,0.000
1681290752.091,-3.418,-57.129,-24.902,16.602,0.000
1681290752.095,-9.766,-60.059,-33.203,13.672,0.000
1681290752.099,-17.578,-55.176,-31.250,14.160,0.000
1681290752.103,-12.207,-53.711,-26.855,16.113,0.000
1681290752.107,2.930,-51.270,-23.926,19.043,0.000
1681290752.111,-2.441,-49.805,-22.949,5.371,0.000
1681290752.115,-16.113,-53.223,-25.879,-0.488,0.000
1681290752.119,-13.672,-53.223,-26.367,-0.488,0.000
1681290752.123,-7.812,-52.734,-26.367,1.953,0.000
1681290752.127,-3.418,-49.805,-25.879,11.230,0.000
1681290752.130,-11.719,-52.246,-29.297,8.301,0.000
1681290752.134,-17.578,-51.270,-26.855,-5.859,0.000
1681290752.138,-10.742,-51.758,-22.949,-4.395,0.000
1681290752.142,-8.789,-51.270,-22.461,3.418,0.000
1681290752.146,-6.348,-45.898,-18.555,4.395,0.000
1681290752.150,-14.648,-45.410,-20.508,1.953,0.000
1681290752.154,-10.742,-44.434,-19.531,0.488,0.000
1681290752.158,-6.348,-43.945,-17.578,6.836,0.000
1681290752.162,-10.742,-46.875,-20.996,6.348,0.000
1681290752.166,-10.742,-44.922,-20.508,2.441,0.000
1681290752.170,-11.230,-38.086,-16.113,5.859,0.000
1681290752.173,-16.113,-39.062,-12.207,3.418,0.000
1681290752.177,-22.949,-44.922,-14.648,-8.301,0.000
1681290752.181,-26.855,-46.875,-20.020,-13.672,0.000
1681290752.185,-28.809,-46.875,-20.996,-13.672,0.000
1681290752.189,-28.809,-50.293,-38.574,-18.066,0.000
1681290752.193,-29.785,-48.828,-102.539,-23.926,0.000
1681290752.197,-25.391,-40.527,-156.250,-15.625,0.000
1681290752.201,-26.367,-39.062,-162.109,-10.742,0.000
1681290752.205,-24.414,-43.457,-162.109,-6.348,0.000
1681290752.209,-21.973,-42.969,-157.715,-6.348,0.000
1681290752.212,-27.832,-41.016,-149.414,-16.602,0.000
1681290752.216,-24.902,-35.156,-144.043,-18.066,0.000
1681290752.220,-22.949,-42.480,-138.184,-13.184,0.000
1681290752.224,-21.484,-48.340,-130.859,-11.230,0.000
1681290752.228,-23.438,-46.875,-125.977,-13.184,0.000
1681290752.232,-24.902,-42.480,-123.047,-20.020,0.000
1681290752.236,-22.461,-38.086,-120.117,-20.020,0.000
1681290752.240,-13.672,-38.574,-115.234,-14.648,0.000
1681290752.244,-4.395,-40.527,-111.328,-6.836,0.000
1681290752.248,-9.277,-42.480,-112.793,-8.301,0.000
1681290752.252,-22.949,-45.410,-109.863,-22.461,0.000
1681290752.255,-20.508,-38.086,-101.074,-20.020,0.000
1681290752.259,-12.207,-32.715,-95.703,-5.859,0.000
1681290752.263,-9.766,-34.668,-93.750,-2.441,0.000
1681290752.267,-7.324,-32.227,-94.238,0.488,0.000
1681290752.271,-13.184,-38.086,-85.938,-8.789,0.000
1681290752.275,-20.020,-41.992,-79.590,-18.555,0.000
1681290752.279,-23.438,-38.574,-87.891,-20.508,0.000
1681290752.283,-23.926,-36.621,-85.449,-15.625,0.000
1681290752.287,-21.484,-40.039,-75.684,-10.254,0.000
1681290752.291,-24.902,-40.039,-70.312,-13.184,0.000
1681290752.295,-26.367,-38.574,-68.359,-18.555,0.000
1681290752.298,-22.461,-36.133,-71.289,-20.020,0.000
1681290752.302,-18.066,-34.668,-65.918,-12.207,0.000
1681290752.306,-17.578,-39.551,-61.035,-12.695,0.000
1681290752.310,-22.949,-37.109,-61.523,-21.484,0.000
1681290752.314,-20.508,-35.645,-60.547,-21.484,0.000
1681290752.318,-21.484,-31.250,-59.082,-23.438,0.000
1681290752.322,-23.438,-28.809,-59.570,-19.043,0.000
1681290752.326,-19.531,-31.250,-54.688,-10.254,0.000
1681290752.330,-25.391,-24.902,-55.664,-16.602,0.000
1681290752.334,-37.109,-24.414,-59.570,-27.344,0.000
1681290752.337,-41.992,-32.715,-47.852,-36.621,0.000
1681290752.341,-37.109,-31.738,-43.945,-34.668,0.000
1681290752.345,-42.480,-22.949,-50.293,-42.480,0.000
1681290752.349,-59.570,-20.508,-46.875,-58.105,0.000
1681290752.353,-62.988,-8.789,-47.363,-62.012,0.000
1681290752.357,-78.613,-9.277,-49.805,-74.707,0.000
1681290752.361,-95.703,-12.207,-49.805,-83.984,0.000
1681290752.365,-109.863,-0.977,-43.945,-93.262,0.000
1681290752.369,-134.277,9.766,-37.598,-124.023,0.000
1681290752.373,-146.973,19.531,-38.574,-142.090,0.000
1681290752.377,-161.621,18.066,-33.203,-161.133,0.000
1681290752.380,-188.965,8.789,-22.949,-185.547,0.000
1681290752.384,-210.449,4.883,-22.949,-196.289,0.000
1681290752.388,-210.449,7.324,-21.484,-195.801,0.000
1681290752.392,-217.285,7.812,-5.371,-208.984,0.000
1681290752.396,-222.168,6.836,-4.395,-218.262,0.000
1681290752.400,-206.055,2.930,-7.324,-195.801,0.000
1681290752.404,-207.031,2.441,1.953,-188.477,0.000
1681290752.408,-205.566,1.953,1.953,-192.383,0.000
1681290752.412,-179.688,4.395,-2.930,-179.199,0.000
1681290752.416,-171.387,10.742,-6.836,-181.152,0.000
1681290752.420,-172.363,3.418,-7.812,-183.594,0.000
1681290752.423,-151.855,-7.812,-10.742,-154.297,0.000
1681290752.427,-128.418,-7.812,-13.184,-133.789,0.000
1681290752.431,-133.301,-10.742,-13.672,-136.719,0.000
1681290752.435,-131.836,-16.602,-16.113,-126.465,0.000
1681290752.439,-105.957,-18.555,-18.066,-105.957,0.000
1681290752.443,-85.449,-13.184,-19.043,-84.961,0.000
1681290752.447,-69.336,-11.719,-24.902,-65.430,0.000
1681290752.451,-68.359,-17.090,-33.691,-60.059,0.000
1681290752.455,-65.430,-19.531,-37.598,-62.012,0.000
1681290752.459,-47.363,-26.855,-39.062,-47.363,0.000
1681290752.462,-32.227,-28.320,-43.945,-17.578,0.000
1681290752.466,-21.484,-27.344,-45.410,-7.812,0.000
1681290752.470,-25.391,-33.691,-50.293,-14.160,0.000
1681290752.474,-17.090,-36.621,-66.406,-10.254,0.000
1681290752.478,0.488,-41.992,-71.777,5.371,0.000
1681290752.482,7.812,-43.945,-68.359,16.602,0.000
1681290752.486,15.137,-42.969,-72.266,20.020,0.000
1681290752.490,10.254,-48.340,-74.707,23.926,0.000
1681290752.494,9.766,-56.152,-78.125,19.043,0.000
1681290752.498,11.719,-61.035,-83.496,14.648,0.000
1681290752.502,22.461,-62.500,-83.984,23.926,0.000
1681290752.505,32.715,-64.941,-87.402,37.109,0.000
1681290752.509,29.785,-66.406,-86.426,35.645,0.000
1681290752.513,31.250,-65.918,-83.496,31.250,0.000
1681290752.517,35.645,-64.941,-83.496,31.250,0.000
1681290752.521,42.969,-62.012,-79.102,37.598,0.000
1681290752.525,46.875,-65.430,-80.566,44.922,0.000
1681290752.529,43.945,-62.500,-86.426,39.551,0.000
1681290752.533,40.527,-54.688,-82.031,35.156,0.000
1681290752.537,46.387,-60.059,-77.148,31.738,0.000
1681290752.541,43.457,-62.500,-79.102,40.527,0.000
1681290752.545,44.434,-60.059,-77.148,54.688,0.000
1681290752.548,47.852,-62.988,-77.637,48.828,0.000
1681290752.552,43.457,-57.617,-79.102,41.016,0.000
1681290752.556,39.062,-56.641,-75.195,41.504,0.000
1681290752.560,34.668,-55.664,-71.777,39.062,0.000
1681290752.564,39.551,-52.734,-68.359,45.898,0.000
1681290752.568,48.340,-53.223,-67.383,61.523,0.000
1681290752.572,44.434,-54.199,-66.895,50.293,0.000
1681290752.576,32.715,-56.152,-62.988,34.668,0.000
1681290752.580,37.109,-54.199,-62.012,35.645,0.000
1681290752.584,44.434,-50.293,-58.594,46.387,0.000
1681290752.587,44.922,-51.270,-55.664,47.363,0.000
1681290752.591,32.227,-49.805,-60.059,38.574,0.000
1681290752.595,27.344,-46.387,-60.547,37.598,0.000
1681290752.599,30.762,-37.109,-54.688,37.109,0.000
1681290752.603,30.762,-32.715,-58.105,34.668,0.000
1681290752.607,32.715,-39.551,-62.988,36.621,0.000
1681290752.611,27.344,-43.457,-58.594,35.645,0.000
1681290752.615,16.113,-45.898,-57.617,21.484,0.000
1681290752.619,20.996,-51.270,-58.594,16.602,0.000
1681290752.623,25.879,-52.246,-61.523,22.949,0.000
1681290752.627,16.602,-48.340,-68.848,20.996,0.000
1681290752.630,6.348,-49.805,-69.824,11.719,0.000
1681290752.634,-1.953,-53.711,-69.336,2.441,0.000
1681290752.638,-0.488,-48.340,-67.383,9.277,0.000
1681290752.642,-3.906,-47.852,-66.895,13.672,0.000
1681290752.646,5.371,-49.805,-63.477,20.996,0.000
1681290752.650,11.719,-50.293,-64.941,29.785,0.000
1681290752.654,-0.488,-48.828,-62.500,15.137,0.000
1681290752.658,-1.465,-48.340,-56.152,7.812,0.000
1681290752.662,4.395,-46.875,-56.641,16.602,0.000
1681290752.666,6.348,-47.852,-56.152,9.766,0.000
1681290752.670,3.906,-53.711,-56.152,4.883,0.000
1681290752.673,-1.465,-48.828,-52.246,0.977,0.000
1681290752.677,-1.953,-41.504,-53.223,-7.324,0.000
1681290752.681,11.230,-40.039,-62.988,10.254,0.000
1681290752.685,26.367,-44.434,-57.129,35.645,0.000
1681290752.689,4.883,-46.387,-50.781,20.996,0.000
1681290752.693,-16.113,-43.945,-51.758,-6.836,0.000
1681290752.697,-15.137,-48.828,-51.758,0.000,0.000
1681290752.701,-23.926,-53.711,-51.758,3.906,0.000
1681290752.705,-19.043,-53.711,-53.711,1.953,0.000
1681290752.709,-13.184,-54.199,-50.781,-1.953,0.000
1681290752.713,-21.484,-57.617,-45.898,-3.418,0.000
1681290752.716,-23.926,-62.500,-41.016,-2.441,0.000
1681290752.720,-30.762,-62.012,-41.016,-11.719,0.000
1681290752.724,-21.973,-62.988,-52.246,-9.277,0.000
1681290752.728,-15.137,-67.871,-56.152,-2.930,0.000
1681290752.732,-18.066,-64.941,-53.711,-13.672,0.000
1681290752.736,-20.996,-63.965,-56.152,-15.625,0.000
1681290752.740,-16.602,-65.430,-53.711,-2.441,0.000
1681290752.744,-14.160,-62.012,-49.805,1.953,0.000
1681290752.748,-17.090,-60.059,-47.363,3.906,0.000
1681290752.752,-13.184,-57.129,-43.945,2.441,0.000
1681290752.755,-15.137,-57.129,-43.945,4.883,0.000
1681290752.759,-22.949,-59.082,-43.945,0.488,0.000
1681290752.763,-13.184,-53.223,-42.969,5.371,0.000
1681290752.767,-5.371,-44.922,-43.457,8.301,0.000
1681290752.771,-5.859,-42.480,-42.480,-0.488,0.000
1681290752.775,-9.277,-41.016,-44.434,2.441,0.000
1681290752.779,-16.113,-41.016,-45.410,5.371,0.000
1681290752.783,-1.953,-42.480,-44.434,3.418,0.000
1681290752.787,-1.465,-40.527,-46.875,3.418,0.000
1681290752.791,-9.277,-44.434,-53.223,-3.418,0.000
1681290752.795,-1.465,-42.969,-57.129,-8.789,0.000
1681290752.798,0.000,-41.016,-57.129,-4.883,0.000
1681290752.802,0.000,-38.086,-55.664,4.395,0.000
1681290752.806,4.395,-36.133,-56.152,9.766,0.000
1681290752.810,-5.859,-41.016,-58.105,5.371,0.000
1681290752.814,-13.184,-40.039,-57.617,-11.230,0.000
1681290752.818,-9.766,-37.109,-53.223,-5.859,0.000
1681290752.822,0.977,-36.133,-46.387,13.184,0.000
1681290752.826,3.418,-36.621,-50.293,20.508,0.000
1681290752.830,-1.953,-38.086,-50.293,18.555,0.000
1681290752.834,-6.348,-41.016,-48.340,3.906,0.000
1681290752.838,-8.789,-39.551,-52.734,0.488,0.000
1681290752.841,-5.859,-37.598,-57.129,-3.906,0.000
1681290752.845,-6.836,-40.039,-61.035,0.488,0.000
1681290752.849,-12.695,-37.598,-60.059,7.812,0.000
1681290752.853,-15.137,-37.109,-61.035,-4.395,0.000
1681290752.857,-15.137,-41.016,-62.988,-8.789,0.000
1681290752.861,-11.719,-36.621,-62.012,1.953,0.000
1681290752.865,-4.395,-34.180,-59.082,4.395,0.000
1681290752.869,-2.930,-34.668,-60.059,2.441,0.000
1681290752.873,-7.812,-32.715,-63.965,-2.930,0.000
1681290752.877,-9.766,-31.738,-63.477,-11.230,0.000
1681290752.880,-12.207,-32.715,-54.688,-11.230,0.000
1681290752.884,-19.043,-38.086,-56.641,-5.859,0.000
1681290752.888,-20.508,-37.109,-60.547,-9.766,0.000
1681290752.892,-18.555,-33.691,-56.152,-17.090,0.000
1681290752.896,-19.531,-34.668,-54.199,-21.973,0.000
1681290752.900,-18.555,-32.715,-51.758,-19.531,0.000
1681290752.904,-20.996,-33.691,-56.641,-12.207,0.000
1681290752.908,-23.926,-36.621,-59.082,-12.207,0.000
1681290752.912,-23.438,-38.574,-63.965,-16.602,0.000
1681290752.916,-34.668,-39.551,-67.871,-29.297,0.000
1681290752.920,-31.738,-33.691,-63.477,-35.645,0.000
1681290752.923,-23.926,-40.527,-62.988,-27.344,0.000
1681290752.927,-21.484,-43.945,-65.430,-15.137,0.000
1681290752.931,-23.926,-40.039,-66.895,-18.066,0.000
1681290752.935,-26.855,-37.598,-65.918,-24.902,0.000
1681290752.939,-22.949,-34.180,-64.453,-17.090,0.000
1681290752.943,-16.602,-33.691,-65.430,-11.719,0.000
1681290752.947,-20.508,-39.551,-65.918,-13.672,0.000
1681290752.951,-26.367,-41.992,-70.312,-19.531,0.000
1681290752.955,-28.320,-37.109,-72.754,-29.785,0.000
1681290752.959,-22.949,-32.715,-67.383,-31.250,0.000
1681290752.963,-0.977,-33.691,-64.453,-22.949,0.000
1681290752.966,9.766,-30.762,-61.035,-11.719,0.000
1681290752.970,2.441,-25.879,-62.988,-4.883,0.000
1681290752.974,-12.695,-29.297,-66.406,-13.184,0.000
1681290752.978,-18.555,-32.715,-68.359,-22.461,0.000
1681290752.982,-0.488,-31.250,-75.684,-0.488,0.000
1681290752.986,4.395,-30.273,-68.359,9.277,0.000
1681290752.990,-26.855,-28.809,-49.316,-15.137,0.000
1681290752.994,-46.387,-37.109,-47.363,-29.297,0.000
1681290752.998,-39.062,-47.363,-55.664,-22.949,0.000
1681290753.002,-26.855,-45.410,-58.105,-13.184,0.000
1681290753.005,-25.879,-45.898,-54.688,-11.719,0.000
1681290753.009,-32.227,-45.410,-59.570,-14.648,0.000
1681290753.013,-26.367,-42.969,-61.035,-17.090,0.000
1681290753.017,-13.672,-38.574,-58.105,-10.742,0.000
1681290753.021,-14.160,-38.574,-58.594,-3.418,0.000
1681290753.025,-12.695,-39.551,-59.570,5.371,0.000
1681290753.029,-9.277,-38.574,-57.617,7.812,0.000
1681290753.033,-22.461,-36.621,-54.688,-9.277,0.000
1681290753.037,-28.809,-32.227,-53.711,-16.602,0.000
1681290753.041,-24.414,-32.715,-53.711,-10.742,0.000
1681290753.045,-19.043,-30.762,-59.082,-12.695,0.000
1681290753.048,-16.113,-25.391,-61.035,-16.113,0.000
1681290753.052,-16.113,-23.926,-57.129,-6.348,0.000
1681290753.056,-13.672,-27.832,-57.129,-9.277,0.000
1681290753.060,-12.207,-30.762,-57.129,-12.695,0.000
1681290753.064,-9.277,-29.297,-57.129,-7.324,0.000
1681290753.068,-13.184,-30.273,-60.059,-8.789,0.000
1681290753.072,-22.461,-34.180,-64.453,-10.254,0.000
1681290753.076,-31.738,-34.668,-65.430,-9.277,0.000
1681290753.080,-28.320,-30.762,-56.152,-8.301,0.000
1681290753.084,-17.578,-35.156,-56.152,-11.230,0.000
1681290753.088,-14.648,-39.062,-60.547,-14.648,0.000
1681290753.091,-18.066,-36.621,-62.988,-21.484,0.000
1681290753.095,-23.438,-36.133,-71.777,-29.297,0.000
1681290753.099,-24.902,-42.969,-65.430,-32.227,0.000
1681290753.103,-11.719,-43.945,-50.293,-20.508,0.000
1681290753.107,-9.277,-37.109,-48.340,-4.883,0.000
1681290753.111,-19.043,-32.227,-48.828,-6.836,0.000
1681290753.115,-23.926,-24.902,-49.805,-13.184,0.000
1681290753.119,-24.902,-28.320,-47.852,-17.578,0.000
1681290753.123,-21.973,-25.391,-43.945,-15.625,0.000
1681290753.127,-29.297,-22.461,-46.875,-18.555,0.000
1681290753.130,-32.715,-23.438,-45.898,-22.461,0.000
1681290753.134,-39.062,-21.484,-46.875,-33.691,0.000
1681290753.138,-62.988,-11.230,-49.805,-55.176,0.000
1681290753.142,-79.102,-12.207,-47.852,-71.777,0.000
1681290753.146,-87.402,-9.766,-48.828,-83.008,0.000
1681290753.150,-104.004,4.883,-47.363,-108.398,0.000
1681290753.154,-127.441,8.789,-39.551,-133.301,0.000
1681290753.158,-153.809,9.766,-32.715,-157.227,0.000
1681290753.162,-169.922,12.207,-29.297,-169.922,0.000
1681290753.166,-181.152,19.531,-27.832,-175.293,0.000
1681290753.170,-189.453,19.043,-21.973,-189.941,0.000
1681290753.173,-190.430,7.324,-14.648,-195.801,0.000
1681290753.177,-196.777,3.906,-17.578,-207.520,0.000
1681290753.181,-189.453,8.789,-17.090,-203.613,0.000
1681290753.185,-173.828,6.836,-15.137,-187.012,0.000
1681290753.189,-171.875,2.441,-18.066,-186.035,0.000
1681290753.193,-166.016,2.930,-18.555,-184.082,0.000
1681290753.197,-157.227,-3.418,-20.996,-171.387,0.000
1681290753.201,-146.484,-1.953,-24.414,-158.691,0.000
1681290753.205,-130.859,-11.719,-27.344,-139.648,0.000
1681290753.209,-112.793,-19.043,-33.691,-115.723,0.000
1681290753.213,-108.398,-16.113,-41.504,-107.910,0.000
1681290753.216,-102.539,-24.414,-51.758,-105.957,0.000
1681290753.220,-83.496,-23.438,-57.129,-86.426,0.000
1681290753.224,-72.266,-24.902,-47.852,-73.242,0.000
1681290753.228,-62.500,-30.762,-46.387,-62.012,0.000
1681290753.232,-47.852,-34.180,-51.270,-48.828,0.000
1681290753.236,-41.992,-34.180,-56.641,-47.363,0.000
1681290753.240,-26.855,-33.691,-61.523,-25.879,0.000
1681290753.244,-11.230,-38.086,-63.965,-9.766,0.000
1681290753.248,-2.441,-39.551,-66.895,-6.836,0.000
1681290753.252,-3.906,-41.992,-69.336,-5.371,0.000
1681290753.256,-6.348,-45.898,-73.730,0.488,0.000
1681290753.259,5.371,-46.875,-73.242,11.230,0.000
1681290753.263,12.695,-47.363,-76.660,15.625,0.000
1681290753.267,13.672,-52.734,-81.055,17.090,0.000
1681290753.271,16.113,-55.176,-82.031,13.184,0.000
1681290753.275,8.301,-49.805,-84.961,11.230,0.000
1681290753.279,9.277,-50.781,-88.867,16.602,0.000
1681290753.283,20.996,-54.688,-92.773,28.320,0.000
1681290753.287,31.250,-50.781,-91.309,42.480,0.000
1681290753.291,29.297,-49.316,-87.891,37.598,0.000
1681290753.295,29.297,-49.316,-83.984,26.855,0.000
1681290753.298,30.273,-49.316,-81.055,30.273,0.000
1681290753.302,27.344,-49.805,-79.590,36.621,0.000
1681290753.306,32.715,-46.875,-82.031,42.969,0.000
1681290753.310,36.621,-46.875,-85.449,41.992,0.000
1681290753.314,32.227,-45.410,-77.637,35.645,0.000
1681290753.318,25.879,-44.434,-72.266,36.133,0.000
1681290753.322,30.273,-46.387,-77.148,31.738,0.000
1681290753.326,29.297,-51.270,-76.660,28.320,0.000
1681290753.330,28.320,-50.293,-72.754,38.086,0.000
1681290753.334,28.809,-47.363,-76.660,34.180,0.000
1681290753.338,25.391,-52.246,-74.219,27.344,0.000
1681290753.341,23.438,-54.199,-72.754,29.297,0.000
1681290753.345,18.555,-57.129,-82.520,24.414,0.000
1681290753.349,12.695,-62.500,-86.914,20.508,0.000
1681290753.353,2.441,-65.430,-90.332,9.277,0.000
1681290753.357,0.488,-59.082,-89.844,2.441,0.000
1681290753.361,4.883,-57.129,-85.938,8.789,0.000
1681290753.365,-1.465,-59.570,-87.891,10.254,0.000
1681290753.369,-0.977,-54.199,-90.820,11.230,0.000
1681290753.373,-0.488,-52.246,-88.867,8.301,0.000
1681290753.377,-4.883,-55.664,-86.914,-1.953,0.000
1681290753.381,1.465,-58.594,-82.031,-0.488,0.000
1681290753.384,7.324,-57.129,-80.078,8.789,0.000
1681290753.388,5.371,-57.617,-80.078,11.719,0.000
1681290753.392,-2.930,-57.617,-76.660,9.766,0.000
1681290753.396,-15.137,-54.199,-75.195,2.441,0.000
1681290753.400,-13.184,-50.781,-73.730,3.906,0.000
1681290753.404,-5.371,-48.340,-67.871,13.184,0.000
1681290753.408,-4.395,-48.828,-59.570,15.625,0.000
1681290753.412,-3.906,-49.316,-61.035,10.742,0.000
1681290753.416,-9.766,-53.223,-62.500,4.395,0.000
1681290753.420,-10.742,-52.734,-63.965,-2.441,0.000
1681290753.423,-3.906,-45.410,-63.477,9.766,0.000
1681290753.427,-0.488,-45.898,-58.105,23.438,0.000
1681290753.431,0.000,-49.316,-61.523,13.672,0.000
1681290753.435,-4.395,-49.316,-63.477,11.230,0.000
1681290753.439,-6.348,-51.270,-59.570,11.230,0.000
1681290753.443,-1.953,-51.758,-56.641,8.301,0.000
1681290753.447,-3.906,-50.293,-59.570,2.930,0.000
1681290753.451,-8.789,-50.781,-57.617,0.488,0.000
1681290753.455,-11.719,-50.293,-56.152,-8.789,0.000
1681290753.459,-15.625,-52.734,-56.152,-16.602,0.000
1681290753.463,-16.113,-51.758,-51.270,-11.230,0.000
1681290753.466,-9.766,-45.410,-47.363,-5.371,0.000
1681290753.470,-10.742,-46.875,-44.434,-1.465,0.000
1681290753.474,-19.043,-47.852,-48.828,-9.277,0.000
1681290753.478,-19.531,-46.387,-52.246,-16.602,0.000
1681290753.482,-16.602,-43.945,-49.805,-7.324,0.000
1681290753.486,-17.578,-41.016,-51.758,-7.324,0.000
1681290753.490,-21.973,-47.363,-56.641,-13.672,0.000
1681290753.494,-22.461,-45.410,-56.641,-15.625,0.000
1681290753.498,-20.996,-36.133,-49.805,-11.719,0.000
1681290753.502,-18.066,-32.227,-42.969,-2.441,0.000
1681290753.506,-9.766,-29.785,-44.922,2.441,0.000
1681290753.509,-7.812,-34.180,-43.945,9.277,0.000
1681290753.513,-20.508,-33.691,-41.504,-1.465,0.000
1681290753.517,-24.414,-31.250,-44.922,-19.043,0.000
1681290753.521,-16.602,-34.180,-41.504,-9.277,0.000
1681290753.525,-4.883,-36.621,-39.062,9.277,0.000
1681290753.529,1.465,-33.203,-40.527,11.230,0.000
1681290753.533,-12.207,-28.809,-41.016,-0.488,0.000
1681290753.537,-15.137,-29.785,-48.828,-8.789,0.000
1681290753.541,-14.160,-34.668,-45.410,-8.301,0.000
1681290753.545,-12.207,-34.668,-41.504,-6.348,0.000
1681290753.548,-10.742,-33.691,-42.969,1.465,0.000
1681290753.552,-11.230,-33.691,-35.645,-3.418,0.000
1681290753.556,-12.207,-34.668,-34.668,-14.160,0.000
1681290753.560,-15.137,-37.109,-40.039,-13.184,0.000
1681290753.564,-12.207,-36.621,-44.922,-6.836,0.000
1681290753.568,-11.230,-34.180,-49.316,-1.953,0.000
1681290753.572,-9.766,-33.691,-48.340,-6.348,0.000
1681290753.576,-12.695,-34.668,-45.410,-9.277,0.000
1681290753.580,-13.672,-30.273,-46.875,-5.371,0.000
1681290753.584,-11.719,-27.832,-52.734,-5.371,0.000
1681290753.588,-12.207,-30.762,-55.176,-3.418,0.000
1681290753.591,-20.020,-32.227,-57.129,-11.230,0.000
1681290753.595,-32.227,-38.086,-59.570,-28.809,0.000
1681290753.599,-30.762,-36.621,-57.129,-30.762,0.000
1681290753.603,-23.438,-32.715,-55.176,-21.484,0.000
1681290753.607,-29.297,-34.180,-55.176,-21.973,0.000
1681290753.611,-25.879,-32.227,-53.223,-25.391,0.000
1681290753.615,-26.855,-33.203,-53.223,-21.484,0.000
1681290753.619,-38.086,-37.109,-54.688,-18.066,0.000
1681290753.623,-34.180,-41.992,-58.105,-17.578,0.000
1681290753.627,-24.902,-44.922,-57.617,-16.113,0.000
1681290753.631,-25.879,-41.504,-58.105,-15.137,0.000
1681290753.634,-26.855,-35.645,-58.594,-24.414,0.000
1681290753.638,-33.203,-39.062,-59.082,-32.227,0.000
1681290753.642,-38.086,-39.062,-62.500,-24.414,0.000
1681290753.646,-33.691,-36.621,-63.477,-24.902,0.000
1681290753.650,-32.227,-38.086,-58.594,-28.320,0.000
1681290753.654,-33.691,-34.668,-56.152,-26.367,0.000
1681290753.658,-36.133,-36.621,-55.176,-30.273,0.000
1681290753.662,-27.344,-40.039,-54.199,-26.855,0.000
1681290753.666,-24.414,-41.504,-52.246,-24.414,0.000
1681290753.670,-20.508,-36.133,-52.734,-21.973,0.000
1681290753.673,-23.926,-30.273,-57.129,-23.438,0.000
1681290753.677,-24.414,-32.715,-55.664,-25.391,0.000
1681290753.681,-16.602,-35.156,-56.152,-20.508,0.000
1681290753.685,-15.625,-39.551,-60.547,-15.137,0.000
1681290753.689,-14.160,-41.504,-56.152,-13.672,0.000
1681290753.693,-13.184,-37.598,-52.246,-20.996,0.000
1681290753.697,-28.320,-38.574,-53.711,-24.902,0.000
1681290753.701,-30.762,-42.969,-53.223,-16.113,0.000
1681290753.705,-17.578,-39.062,-52.246,-3.906,0.000
1681290753.709,-21.484,-36.621,-53.223,-8.301,0.000
1681290753.713,-27.832,-36.133,-57.129,-20.508,0.000
1681290753.716,-30.273,-37.598,-63.477,-23.926,0.000
1681290753.720,-29.785,-38.574,-63.965,-22.949,0.000
1681290753.724,-28.809,-33.203,-61.523,-17.090,0.000
1681290753.728,-31.738,-35.156,-62.988,-18.555,0.000
1681290753.732,-36.133,-38.086,-62.500,-23.438,0.000
1681290753.736,-37.598,-37.109,-59.082,-27.344,0.000
1681290753.740,-33.691,-37.598,-62.012,-28.320,0.000
1681290753.744,-31.738,-35.645,-67.383,-24.414,0.000
1681290753.748,-28.320,-35.645,-61.523,-21.484,0.000
1681290753.752,-27.832,-36.621,-61.523,-14.648,0.000
1681290753.756,-38.086,-34.668,-66.406,-20.996,0.000
1681290753.759,-41.992,-37.109,-62.988,-28.320,0.000
1681290753.763,-38.086,-45.410,-68.848,-26.855,0.000
1681290753.767,-31.250,-39.551,-71.289,-21.973,0.000
1681290753.771,-33.691,-35.156,-63.965,-16.113,0.000
1681290753.775,-41.016,-45.898,-62.500,-20.508,0.000
1681290753.779,-33.691,-47.852,-63.477,-22.461,0.000
1681290753.783,-26.855,-40.527,-60.059,-15.625,0.000
1681290753.787,-15.625,-37.109,-55.664,-14.160,0.000
1681290753.791,-15.137,-34.180,-55.664,-17.578,0.000
1681290753.795,-24.902,-31.738,-60.059,-20.020,0.000
1681290753.799,-23.438,-31.738,-61.035,-14.160,0.000
1681290753.802,-19.043,-33.203,-62.500,-10.742,0.000
1681290753.806,-15.625,-36.133,-67.871,-9.277,0.000
1681290753.810,-20.996,-40.039,-65.430,-12.207,0.000
1681290753.814,-31.738,-37.109,-62.012,-16.602,0.000
1681290753.818,-24.414,-35.156,-61.523,-20.020,0.000
1681290753.822,-14.648,-38.086,-65.918,-21.484,0.000
1681290753.826,-16.113,-40.039,-68.359,-17.578,0.000
1681290753.830,-21.973,-43.945,-67.871,-13.672,0.000
1681290753.834,-27.832,-46.387,-68.848,-20.020,0.000
1681290753.838,-39.551,-47.852,-71.777,-32.715,0.000
1681290753.841,-41.016,-48.340,-71.289,-25.391,0.000
1681290753.845,-33.203,-44.434,-70.312,-14.160,0.000
1681290753.849,-37.598,-41.992,-68.359,-16.602,0.000
1681290753.853,-39.551,-38.574,-62.500,-23.926,0.000
1681290753.857,-38.574,-40.527,-65.430,-36.133,0.000
1681290753.861,-38.574,-43.945,-62.500,-37.109,0.000
1681290753.865,-34.180,-38.574,-56.152,-20.020,0.000
1681290753.869,-24.902,-37.109,-59.570,-16.113,0.000
1681290753.873,-26.855,-40.039,-61.523,-23.438,0.000
1681290753.877,-30.762,-40.527,-58.105,-23.926,0.000
1681290753.881,-23.438,-41.504,-55.176,-14.648,0.000
1681290753.884,-14.648,-40.039,-59.570,-10.254,0.000
1681290753.888,-18.066,-37.109,-57.129,-10.254,0.000
1681290753.892,-24.902,-41.016,-54.199,-19.531,0.000
1681290753.896,-32.227,-41.992,-53.223,-27.832,0.000
1681290753.900,-27.344,-34.668,-46.387,-17.090,0.000
1681290753.904,-22.461,-30.273,-48.828,-14.160,0.000
1681290753.908,-26.367,-34.180,-51.758,-16.113,0.000
1681290753.912,-29.785,-42.969,-53.223,-17.578,0.000
1681290753.916,-33.691,-45.410,-54.199,-27.344,0.000
1681290753.920,-38.086,-38.086,-49.805,-26.855,0.000
1681290753.924,-41.992,-38.574,-50.293,-22.949,0.000
1681290753.927,-34.668,-45.410,-50.781,-25.391,0.000
1681290753.931,-28.809,-41.992,-48.340,-21.484,0.000
1681290753.935,-37.109,-36.133,-51.758,-23.926,0.000
1681290753.939,-33.691,-41.992,-52.734,-26.367,0.000
1681290753.943,-25.391,-41.504,-55.176,-19.531,0.000
1681290753.947,-19.043,-35.156,-58.105,-12.207,0.000
1681290753.951,-19.043,-37.598,-52.734,-22.949,0.000
1681290753.955,-29.785,-41.992,-53.711,-33.691,0.000
1681290753.959,-29.297,-42.480,-61.035,-29.785,0.000
1681290753.963,-23.438,-38.574,-58.105,-20.508,0.000
1681290753.966,-20.020,-36.133,-56.152,-20.020,0.000
1681290753.970,-21.973,-37.598,-57.617,-21.484,0.000
1681290753.974,-26.855,-39.062,-56.152,-23.926,0.000
1681290753.978,-24.902,-34.180,-62.500,-24.902,0.000
1681290753.982,-22.461,-33.203,-57.129,-15.137,0.000
1681290753.986,-21.973,-36.621,-47.363,-9.766,0.000
1681290753.990,-20.020,-33.203,-49.316,-18.555,0.000
1681290753.994,-24.414,-35.156,-51.758,-21.973,0.000
1681290753.998,-27.832,-40.039,-53.223,-26.367,0.000
1681290754.002,-28.320,-40.527,-47.363,-20.996,0.000
1681290754.006,-22.949,-41.016,-44.434,-14.648,0.000
1681290754.009,-27.344,-41.016,-52.734,-29.297,0.000
1681290754.013,-39.551,-42.969,-55.176,-34.180,0.000
1681290754.017,-37.109,-44.434,-46.875,-29.297,0.000
1681290754.021,-26.367,-38.086,-47.363,-30.762,0.000
1681290754.025,-24.902,-34.668,-47.363,-25.879,0.000
1681290754.029,-22.461,-33.203,-42.969,-17.090,0.000
1681290754.033,-21.973,-31.738,-44.434,-24.414,0.000
1681290754.037,-16.113,-32.227,-50.293,-25.879,0.000
1681290754.041,-8.301,-31.250,-49.805,-15.137,0.000
1681290754.045,-12.207,-32.227,-46.875,-12.207,0.000
1681290754.049,-12.207,-34.180,-49.805,-10.254,0.000
1681290754.052,-10.742,-35.645,-47.363,-13.672,0.000
1681290754.056,-16.113,-38.086,-43.457,-23.438,0.000
1681290754.060,-18.555,-35.645,-49.316,-27.832,0.000
1681290754.064,-13.184,-32.227,-56.152,-22.461,0.000
1681290754.068,-13.672,-29.785,-50.293,-11.719,0.000
1681290754.072,-18.555,-31.738,-52.246,-15.625,0.000
1681290754.076,-18.066,-35.645,-57.129,-18.555,0.000
1681290754.080,-21.973,-35.645,-58.594,-19.531,0.000
1681290754.084,-24.902,-36.621,-59.082,-16.602,0.000
1681290754.088,-23.926,-37.598,-56.152,-7.812,0.000
1681290754.091,-25.391,-39.551,-53.711,-11.230,0.000
1681290754.095,-27.344,-35.156,-54.688,-16.602,0.000
1681290754.099,-32.715,-34.668,-57.129,-20.508,0.000
1681290754.103,-34.668,-41.016,-60.059,-26.367,0.000
1681290754.107,-30.273,-41.992,-58.594,-17.578,0.000
1681290754.111,-31.250,-36.133,-57.617,-15.625,0.000
1681290754.115,-32.715,-37.598,-56.152,-20.996,0.000
1681290754.119,-29.785,-41.016,-50.781,-15.625,0.000
1681290754.123,-27.344,-38.574,-45.898,-12.695,0.000
1681290754.127,-26.855,-34.668,-45.898,-4.395,0.000
1681290754.131,-24.902,-28.809,-48.828,1.465,0.000
1681290754.134,-26.367,-29.785,-51.758,-16.602,0.000
1681290754.138,-33.691,-30.273,-51.270,-28.320,0.000
1681290754.142,-28.320,-32.227,-46.387,-23.438,0.000
1681290754.146,-22.949,-28.809,-43.945,-20.996,0.000
1681290754.150,-27.832,-29.785,-46.387,-21.484,0.000
1681290754.154,-30.273,-30.273,-49.805,-26.855,0.000
1681290754.158,-29.785,-27.832,-54.688,-26.855,0.000
1681290754.162,-20.996,-29.297,-53.223,-9.277,0.000
1681290754.166,-16.602,-31.250,-50.293,-4.395,0.000
1681290754.170,-14.648,-31.738,-56.641,-8.789,0.000
1681290754.174,-15.137,-31.250,-59.570,-10.742,0.000
1681290754.177,-20.996,-29.785,-62.012,-16.602,0.000
1681290754.181,-24.414,-30.273,-62.012,-17.090,0.000
1681290754.185,-24.414,-39.551,-60.059,-20.508,0.000
1681290754.189,-26.367,-43.945,-60.547,-22.949,0.000
1681290754.193,-28.320,-37.109,-62.012,-17.090,0.000
1681290754.197,-32.227,-33.691,-64.941,-18.555,0.000
1681290754.201,-36.133,-36.621,-65.430,-21.973,0.000
1681290754.205,-27.832,-39.062,-57.617,-21.484,0.000
1681290754.209,-24.414,-37.109,-59.082,-22.461,0.000
1681290754.213,-26.855,-38.086,-62.500,-27.832,0.000
1681290754.216,-31.250,-38.574,-66.406,-36.621,0.000
1681290754.220,-35.156,-35.645,-74.219,-41.016,0.000
1681290754.224,-30.762,-39.062,-71.289,-31.738,0.000
1681290754.228,-23.926,-38.086,-63.965,-15.137,0.000
1681290754.232,-20.996,-32.715,-63.477,-8.789,0.000
1681290754.236,-27.832,-35.645,-62.500,-25.391,0.000
1681290754.240,-32.227,-35.156,-62.988,-32.715,0.000
1681290754.244,-29.297,-33.691,-65.918,-22.949,0.000
1681290754.248,-27.832,-37.598,-67.383,-18.066,0.000
1681290754.252,-27.832,-39.551,-71.777,-23.926,0.000
1681290754.256,-30.762,-36.621,-70.312,-32.715,0.000
1681290754.259,-28.320,-36.621,-64.453,-29.297,0.000
1681290754.263,-26.855,-31.738,-60.547,-23.926,0.000
1681290754.267,-33.691,-30.273,-60.059,-23.926,0.000
1681290754.271,-30.762,-32.227,-62.500,-27.344,0.000
1681290754.275,-30.762,-26.855,-62.500,-35.156,0.000
1681290754.279,-34.668,-23.926,-62.012,-40.527,0.000
1681290754.283,-30.762,-24.414,-56.641,-29.785,0.000
1681290754.287,-25.879,-24.414,-54.688,-18.066,0.000
1681290754.291,-19.043,-25.879,-64.453,-16.113,0.000
1681290754.295,-27.344,-29.297,-64.941,-25.391,0.000
1681290754.299,-35.156,-34.180,-64.941,-33.691,0.000
1681290754.302,-28.809,-37.109,-64.941,-29.297,0.000
1681290754.306,-26.855,-32.227,-61.523,-25.391,0.000
1681290754.310,-28.320,-26.855,-61.523,-25.879,0.000
1681290754.314,-37.598,-31.250,-65.430,-31.250,0.000
1681290754.318,-46.387,-37.598,-76.172,-34.180,0.000
1681290754.322,-39.551,-41.016,-77.148,-29.297,0.000
1681290754.326,-31.250,-40.527,-73.730,-26.367,0.000
1681290754.330,-24.902,-39.551,-70.312,-21.973,0.000
1681290754.334,-29.785,-41.504,-67.383,-25.391,0.000
1681290754.338,-40.527,-43.457,-61.523,-32.715,0.000
1681290754.342,-34.668,-38.086,-57.129,-31.738,0.000
1681290754.345,-25.879,-34.668,-58.105,-21.484,0.000
1681290754.349,-28.809,-35.645,-58.594,-20.508,0.000
1681290754.353,-32.227,-37.109,-61.523,-25.879,0.000
1681290754.357,-32.227,-43.457,-60.059,-23.438,0.000
1681290754.361,-31.738,-41.504,-57.129,-23.438,0.000
1681290754.365,-21.973,-38.574,-57.617,-21.973,0.000
1681290754.369,-20.996,-39.062,-53.711,-16.113,0.000
1681290754.373,-36.621,-38.574,-53.223,-27.832,0.000
1681290754.377,-37.109,-36.621,-56.152,-46.875,0.000
1681290754.381,-30.762,-41.016,-58.594,-40.527,0.000
1681290754.384,-29.785,-43.945,-59.570,-27.344,0.000
1681290754.388,-33.691,-42.969,-59.570,-27.344,0.000
1681290754.392,-34.180,-43.945,-59.082,-30.762,0.000
1681290754.396,-28.320,-41.016,-54.688,-30.762,0.000
1681290754.400,-30.273,-38.574,-51.270,-34.180,0.000
1681290754.404,-21.973,-40.039,-49.316,-27.832,0.000
1681290754.408,-14.160,-41.992,-50.781,-17.090,0.000
1681290754.412,-21.484,-40.039,-52.734,-14.160,0.000
1681290754.416,-21.973,-33.691,-52.734,-16.113,0.000
1681290754.420,-20.020,-29.785,-52.246,-19.043,0.000
1681290754.424,-22.949,-34.180,-47.852,-10.254,0.000
1681290754.427,-25.391,-41.016,-46.875,-10.742,0.000
1681290754.431,-29.297,-35.645,-46.875,-14.160,0.000
1681290754.435,-29.297,-32.227,-42.480,-12.695,0.000
1681290754.439,-33.203,-35.645,-47.852,-20.508,0.000
1681290754.443,-35.156,-40.039,-53.711,-16.602,0.000
1681290754.447,-26.855,-45.410,-52.246,-9.277,0.000
1681290754.451,-23.926,-42.969,-55.664,-9.766,0.000
1681290754.455,-26.367,-33.691,-55.176,-17.578,0.000
1681290754.459,-23.926,-33.203,-51.758,-20.996,0.000
1681290754.463,-23.926,-38.574,-53.223,-17.090,0.000
1681290754.467,-21.973,-39.551,-54.688,-17.090,0.000
1681290754.470,-22.461,-41.992,-57.617,-19.043,0.000
1681290754.474,-31.250,-49.316,-58.594,-25.879,0.000
1681290754.478,-33.203,-50.293,-56.641,-37.109,0.000
1681290754.482,-31.738,-43.945,-56.152,-31.250,0.000
1681290754.486,-25.879,-40.527,-55.176,-18.555,0.000
1681290754.490,-19.531,-33.691,-51.758,-10.742,0.000
1681290754.494,-23.438,-27.832,-50.781,-17.090,0.000
1681290754.498,-28.320,-32.715,-52.246,-25.391,0.000
1681290754.502,-30.762,-39.062,-51.758,-20.020,0.000
1681290754.506,-28.809,-38.574,-50.293,-13.184,0.000
1681290754.509,-18.555,-37.598,-50.293,-3.418,0.000
1681290754.513,-22.461,-38.086,-54.688,-6.836,0.000
1681290754.517,-34.668,-40.039,-55.176,-15.137,0.000
1681290754.521,-30.762,-36.621,-51.758,-13.184,0.000
1681290754.525,-28.809,-36.621,-51.270,-4.883,0.000
1681290754.529,-29.297,-36.621,-53.223,-3.906,0.000
1681290754.533,-23.438,-35.156,-57.617,-12.207,0.000
1681290754.537,-23.438,-34.180,-60.059,-21.973,0.000
1681290754.541,-29.297,-36.621,-63.965,-27.832,0.000
1681290754.545,-27.832,-41.016,-60.547,-23.438,0.000
1681290754.549,-26.367,-40.527,-60.547,-18.066,0.000
1681290754.552,-31.250,-39.551,-62.988,-23.438,0.000
1681290754.556,-31.738,-36.621,-65.430,-28.809,0.000
1681290754.560,-30.762,-35.645,-66.895,-26.367,0.000
1681290754.564,-29.297,-30.762,-62.500,-20.508,0.000
1681290754.568,-27.344,-24.414,-53.223,-19.043,0.000
1681290754.572,-28.809,-31.250,-51.270,-22.949,0.000
1681290754.576,-32.715,-32.715,-54.199,-30.273,0.000
1681290754.580,-38.574,-33.203,-55.664,-35.645,0.000
1681290754.584,-37.598,-37.109,-60.547,-26.855,0.000
1681290754.588,-26.855,-34.180,-62.500,-16.602,0.000
1681290754.592,-30.762,-31.250,-63.477,-17.090,0.000
1681290754.595,-37.598,-33.691,-60.547,-19.043,0.000
1681290754.599,-35.156,-36.621,-61.523,-25.879,0.000
1681290754.603,-32.715,-36.621,-62.988,-25.391,0.000
1681290754.607,-30.273,-38.574,-63.965,-19.043,0.000
1681290754.611,-28.809,-41.016,-67.383,-23.926,0.000
1681290754.615,-27.344,-40.039,-68.848,-30.273,0.000
1681290754.619,-29.297,-39.062,-65.918,-34.180,0.000
1681290754.623,-28.809,-39.551,-62.500,-30.273,0.000
1681290754.627,-22.461,-38.086,-58.105,-20.020,0.000
1681290754.631,-24.902,-37.109,-51.270,-20.508,0.000
1681290754.634,-31.738,-36.133,-50.781,-34.180,0.000
1681290754.638,-37.109,-33.691,-54.688,-41.992,0.000
1681290754.642,-30.762,-33.691,-53.711,-37.598,0.000
1681290754.646,-16.602,-33.203,-48.828,-26.855,0.000
1681290754.650,-13.672,-33.203,-48.828,-29.785,0.000
1681290754.654,-14.648,-32.715,-49.805,-32.715,0.000
1681290754.658,-20.020,-33.691,-48.828,-29.785,0.000
1681290754.662,-24.902,-28.809,-46.875,-25.391,0.000
1681290754.666,-26.367,-28.320,-49.805,-20.508,0.000
1681290754.670,-33.691,-39.551,-56.152,-23.926,0.000
1681290754.674,-43.945,-42.969,-53.223,-27.832,0.000
1681290754.677,-45.898,-40.039,-50.293,-26.855,0.000
1681290754.681,-40.039,-39.551,-55.176,-22.949,0.000
1681290754.685,-36.621,-39.062,-56.641,-20.996,0.000
1681290754.689,-26.367,-35.645,-55.176,-18.066,0.000
1681290754.693,-20.508,-33.691,-52.734,-15.625,0.000
1681290754.697,-27.344,-31.250,-50.293,-18.555,0.000
1681290754.701,-25.391,-29.297,-53.223,-16.113,0.000
1681290754.705,-13.672,-28.320,-49.316,-5.859,0.000
1681290754.709,-17.090,-34.180,-50.293,-6.348,0.000
1681290754.713,-20.996,-33.691,-52.246,-17.578,0.000
1681290754.717,-19.531,-29.785,-48.828,-28.320,0.000
1681290754.720,-25.391,-35.645,-47.852,-28.320,0.000
1681290754.724,-18.555,-35.156,-45.410,-17.578,0.000
1681290754.728,-10.742,-28.320,-45.410,-10.254,0.000
1681290754.732,-22.461,-31.738,-51.758,-20.020,0.000
1681290754.736,-31.250,-37.109,-56.641,-22.461,0.000
1681290754.740,-29.297,-38.574,-52.246,-15.625,0.000
1681290754.744,-25.879,-33.691,-44.434,-18.555,0.000
1681290754.748,-26.367,-34.668,-46.875,-24.902,0.000
1681290754.752,-36.621,-41.016,-53.711,-30.273,0.000
1681290754.756,-41.504,-37.109,-52.246,-33.203,0.000
1681290754.759,-33.203,-32.227,-48.828,-27.832,0.000
1681290754.763,-33.691,-35.156,-53.223,-21.484,0.000
1681290754.767,-28.809,-36.621,-57.129,-18.555,0.000
1681290754.771,-26.367,-35.156,-57.617,-26.367,0.000
1681290754.775,-38.086,-34.180,-55.664,-25.391,0.000
1681290754.779,-36.133,-34.180,-49.805,-24.902,0.000
1681290754.783,-25.879,-32.715,-46.387,-15.137,0.000
1681290754.787,-22.949,-31.250,-48.828,-6.348,0.000
1681290754.791,-22.949,-28.320,-53.711,-12.695,0.000
1681290754.795,-22.461,-28.320,-55.176,-23.438,0.000
1681290754.799,-20.508,-25.879,-54.688,-22.949,0.000
1681290754.802,-18.555,-22.949,-53.711,-13.672,0.000
1681290754.806,-18.066,-23.438,-53.223,-11.230,0.000
1681290754.810,-14.160,-29.785,-58.105,-10.742,0.000
1681290754.814,-11.230,-36.133,-60.059,-15.137,0.000
1681290754.818,-18.066,-40.039,-59.082,-25.391,0.000
1681290754.822,-11.230,-38.086,-61.523,-24.414,0.000
1681290754.826,-2.930,-36.621,-61.523,-20.996,0.000
1681290754.830,-10.742,-44.434,-68.359,-31.250,0.000
1681290754.834,-18.555,-46.387,-71.777,-36.621,0.000
1681290754.838,-23.438,-48.340,-73.242,-37.598,0.000
1681290754.842,-24.414,-50.781,-76.172,-40.039,0.000
1681290754.845,-21.484,-47.363,-73.730,-30.273,0.000
1681290754.849,-25.879,-45.898,-71.289,-27.344,0.000
1681290754.853,-31.250,-47.852,-75.684,-37.598,0.000
1681290754.857,-31.738,-48.828,-75.684,-41.016,0.000
1681290754.861,-32.227,-49.805,-70.801,-40.039,0.000
1681290754.865,-28.809,-48.340,-68.359,-33.203,0.000
1681290754.869,-30.273,-44.922,-67.383,-21.973,0.000
1681290754.873,-30.273,-42.480,-66.406,-22.949,0.000
1681290754.877,-24.902,-38.086,-63.965,-23.926,0.000
1681290754.881,-20.508,-35.645,-65.430,-17.090,0.000
1681290754.885,-9.277,-34.668,-67.871,-10.254,0.000
1681290754.888,-1.465,-34.180,-65.918,-6.348,0.000
1681290754.892,-2.441,-36.133,-59.570,-8.301,0.000
1681290754.896,-1.953,-35.645,-56.152,-10.742,0.000
1681290754.900,-8.789,-39.062,-63.477,-12.207,0.000
1681290754.904,-7.324,-44.922,-68.848,-6.348,0.000
1681290754.908,-0.977,-41.016,-63.477,0.000,0.000
1681290754.912,0.488,-35.645,-55.664,2.930,0.000
1681290754.916,-6.836,-39.062,-59.570,-1.465,0.000
1681290754.920,-9.277,-41.016,-62.500,-10.742,0.000
1681290754.924,-7.324,-38.574,-58.105,-18.555,0.000
1681290754.927,-10.742,-40.039,-61.035,-14.648,0.000
1681290754.931,-10.742,-41.992,-61.035,1.465,0.000
1681290754.935,-19.043,-41.016,-57.617,0.977,0.000
1681290754.939,-28.809,-38.574,-62.500,-11.719,0.000
1681290754.943,-25.391,-37.109,-63.965,-13.672,0.000
1681290754.947,-18.066,-40.039,-55.176,-5.859,0.000
1681290754.951,-13.184,-41.992,-54.199,-1.953,0.000
1681290754.955,-17.578,-40.039,-56.641,-5.859,0.000
1681290754.959,-21.973,-46.387,-60.547,-15.625,0.000
1681290754.963,-17.090,-50.293,-67.871,-17.090,0.000
1681290754.967,-16.602,-41.504,-66.895,-6.348,0.000
1681290754.970,-32.227,-42.969,-63.965,-11.719,0.000
1681290754.974,-31.738,-50.781,-64.941,-20.508,0.000
1681290754.978,-27.344,-52.246,-64.453,-20.508,0.000
1681290754.982,-30.762,-43.945,-61.523,-12.695,0.000
1681290754.986,-21.484,-39.062,-56.641,0.488,0.000
1681290754.990,-19.043,-41.016,-60.059,4.395,0.000
1681290754.994,-21.973,-42.480,-63.965,-1.465,0.000
1681290754.998,-17.090,-43.457,-63.965,-7.812,0.000
1681290755.002,-13.672,-40.039,-62.012,-9.766,0.000
